# Mains_Frequency_(Hz) =,60,,,,,,,,,,
# Sample_Frequency_(Hz) =,300,,,,,,,,,,
# Sensor_Data_Units =,uV,,,,,,,,,,
# Headset_Name =,DSI-7 SN:23,,,,,,,,,,
# Data_Logger =,DSI-Streamer-v.1.08.119,,,,,,,,,,
# Date =,2/21/2024,,,,,,,,,,
# Time =, 18:37:20.322 ,,,,,,,,,,
# Patient_ID =,X M 01-JAN-2000 X,,,,,,,,,,
# Record_ID =,Startdate 21-FEB-2024 EEG_XX X X,,,,,,,,,,
# EEG Filter Settings =,Non-Filtered,,,,,,,,,,
# Comments =,,,,,,,,,,,
# Reference location:,Pz,,,,,,,,,,
Time,LE,F4,C4,P4,P3,C3,F3,Pz,Trigger,Time_Offset,ADC_Status,ADC_Sequence,Event,Comments
0.0033,1255.5,406.5,1318.2,-1234.8,488.4,20.7,-450.0,0,0,6,0,91,0,
0.0067,1193.1,353.7,1356.3,-1244.1,492.6,-21.0,-485.1,0,0,12,0,92,0,
0.0100,1189.2,343.8,1266.3,-1298.1,431.7,-41.1,-504.6,0,0,18,0,93,0,
0.0133,1255.2,412.5,1360.5,-1214.7,512.7,38.4,-435.3,0,0,24,0,94,0,
0.0167,1178.1,339.6,1328.1,-1274.4,463.8,-51.6,-506.4,0,0,30,0,95,0,
0.0200,1279.8,429.6,1312.2,-1230.3,497.1,42.6,-429.3,0,0,36,0,96,0,
0.0233,1183.8,350.7,1310.7,-1270.2,452.1,-38.1,-504.3,0,0,42,0,97,0,
0.0267,1284.3,445.2,1400.4,-1179.6,555.0,57.3,-408.6,0,0,48,0,98,0,
0.0300,1187.7,351.0,1235.1,-1303.2,418.2,-38.4,-517.5,0,0,54,0,99,0,
0.0333,1252.8,420.9,1411.5,-1180.8,551.7,37.5,-432.3,0,0,60,0,100,0,
0.0367,1232.7,395.7,1328.7,-1242.3,492.6,-3.6,-468.6,0,0,66,0,101,0,
0.0400,1189.2,359.1,1275.3,-1290.3,435.9,-41.4,-512.4,0,0,72,0,102,0,
0.0433,1298.1,473.1,1467.6,-1132.5,603.0,83.1,-381.9,0,0,78,0,103,0,
0.0467,1164.0,318.6,1215.9,-1331.1,395.4,-72.6,-550.8,0,0,84,0,104,0,
0.0500,1310.1,479.7,1431.3,-1149.0,572.4,89.1,-390.0,0,0,90,0,105,0,
0.0533,1191.3,354.0,1347.9,-1256.1,479.7,-30.0,-499.2,0,0,96,0,106,0,
0.0567,1249.2,403.5,1300.2,-1248.3,474.6,13.2,-467.4,0,0,102,0,107,0,
0.0600,1251.9,416.7,1416.0,-1183.5,542.1,36.0,-439.2,0,0,108,0,108,0,
0.0633,1214.1,364.5,1322.1,-1255.2,481.2,-17.4,-488.1,0,0,114,0,109,0,
0.0667,1275.0,432.6,1341.3,-1211.4,508.5,39.9,-432.3,0,0,120,0,110,0,
0.0700,1177.2,350.7,1353.9,-1252.2,482.4,-40.8,-497.1,0,0,126,0,111,0,
0.0733,1291.8,441.0,1361.1,-1201.2,531.6,46.2,-428.7,0,0,132,0,112,0,
0.0767,1190.4,341.7,1278.0,-1284.9,433.2,-41.4,-515.4,0,0,138,0,113,0,
0.0800,1284.3,441.6,1451.1,-1154.7,574.8,59.4,-410.7,0,0,144,0,114,0,
0.0833,1218.0,369.9,1267.2,-1283.4,445.8,-29.1,-500.7,0,0,150,0,115,0,
0.0867,1240.5,405.6,1363.2,-1211.4,516.0,14.7,-455.4,0,0,156,0,116,0,
0.0900,1290.3,444.9,1417.2,-1169.7,567.6,52.5,-410.7,0,0,162,0,117,0,
0.0933,1189.8,341.4,1232.7,-1308.6,414.3,-55.8,-524.4,0,0,168,0,118,0,
0.0967,1332.0,495.9,1488.6,-1107.3,621.0,105.0,-353.7,0,0,174,0,119,0,
0.1000,1182.0,346.2,1274.4,-1292.4,439.8,-57.0,-516.0,0,0,180,0,120,0,
0.1033,1295.7,459.0,1362.0,-1189.8,531.0,54.9,-408.3,0,0,186,0,121,0,
0.1067,1233.9,399.3,1398.9,-1198.2,533.1,4.2,-450.0,0,0,192,0,122,0,
0.1100,1237.5,388.2,1281.3,-1262.1,467.4,-19.2,-474.3,0,0,198,0,123,0,
0.1133,1299.6,449.4,1384.5,-1182.0,538.8,53.4,-410.4,0,0,204,0,124,0,
0.1167,1218.0,371.4,1365.9,-1233.0,497.4,-23.1,-475.5,0,0,210,0,125,0,
0.1200,1301.4,448.5,1340.1,-1197.9,518.7,47.4,-415.8,0,0,216,0,126,0,
0.1233,1192.8,357.6,1332.9,-1252.5,466.8,-33.9,-502.2,0,0,222,0,127,0,
0.1267,1304.7,455.1,1411.5,-1169.4,559.8,59.1,-402.6,0,0,228,0,128,0,
0.1300,1206.0,357.3,1241.7,-1296.9,417.6,-54.0,-512.4,0,0,234,0,129,0,
0.1333,1260.6,424.5,1423.8,-1167.9,554.4,25.5,-432.3,0,0,240,0,130,0,
0.1367,1231.8,396.9,1320.9,-1234.5,488.4,-11.7,-474.0,0,0,246,0,131,0,
0.1400,1207.8,357.3,1276.5,-1271.7,440.1,-27.3,-511.5,0,0,252,0,132,0,
0.1433,1305.0,468.3,1479.9,-1122.6,600.0,85.8,-378.3,0,0,258,0,133,0,
0.1467,1166.4,316.5,1216.8,-1323.9,393.3,-73.8,-552.9,0,0,264,0,134,0,
0.1500,1312.2,472.5,1419.9,-1144.2,565.2,78.0,-402.0,0,0,270,0,135,0,
0.1533,1207.8,363.3,1336.8,-1246.5,477.9,-41.7,-503.7,0,0,276,0,136,0,
0.1567,1257.9,410.1,1294.8,-1240.8,469.2,-3.0,-467.1,0,0,282,0,137,0,
0.1600,1247.4,411.0,1394.1,-1188.9,529.2,7.8,-444.6,0,0,288,0,138,0,
0.1633,1191.6,346.2,1305.9,-1269.0,454.5,-60.0,-516.0,0,0,294,0,139,0,
0.1667,1276.5,428.7,1335.6,-1211.7,499.5,22.5,-441.9,0,0,300,0,140,0,
0.1700,1176.3,342.3,1347.6,-1246.8,474.0,-58.8,-518.7,0,0,306,0,141,0,
0.1733,1284.3,438.9,1353.9,-1199.4,524.4,30.0,-434.1,0,0,312,0,142,0,
0.1767,1187.7,354.3,1276.2,-1275.0,436.2,-45.3,-521.1,0,0,318,0,143,0,
0.1800,1278.6,446.7,1433.7,-1148.4,579.0,44.4,-414.9,0,0,324,0,144,0,
0.1833,1216.5,375.6,1257.6,-1273.5,445.2,-33.3,-503.7,0,0,330,0,145,0,
0.1867,1247.1,410.4,1365.0,-1203.9,505.8,-8.4,-465.3,0,0,336,0,146,0,
0.1900,1282.8,452.4,1409.4,-1164.0,559.2,33.9,-424.5,0,0,342,0,147,0,
0.1933,1173.3,334.5,1223.4,-1317.0,395.1,-79.5,-552.6,0,0,348,0,148,0,
0.1967,1312.2,488.4,1477.2,-1111.5,596.4,75.0,-386.4,0,0,354,0,149,0,
0.2000,1172.1,325.5,1272.9,-1292.1,419.4,-87.6,-552.0,0,0,360,0,150,0,
0.2033,1269.6,436.5,1362.3,-1189.5,511.8,22.2,-447.6,0,0,366,0,151,0,
0.2067,1226.4,392.1,1402.5,-1198.8,514.5,-20.1,-481.8,0,0,372,0,152,0,
0.2100,1227.9,380.7,1279.2,-1262.4,458.4,-38.7,-503.4,0,0,378,0,153,0,
0.2133,1268.7,420.9,1371.3,-1190.7,521.4,13.8,-457.5,0,0,384,0,154,0,
0.2167,1185.0,350.1,1341.3,-1244.7,477.6,-67.2,-527.7,0,0,390,0,155,0,
0.2200,1278.3,427.8,1331.4,-1212.9,499.2,16.5,-450.9,0,0,396,0,156,0,
0.2233,1181.7,343.2,1332.3,-1257.9,451.2,-68.4,-539.7,0,0,402,0,157,0,
0.2267,1287.6,450.6,1418.1,-1164.9,554.1,26.1,-427.2,0,0,408,0,158,0,
0.2300,1187.1,345.3,1237.5,-1294.8,408.3,-74.4,-540.3,0,0,414,0,159,0,
0.2333,1258.8,425.7,1421.4,-1167.6,544.8,12.9,-441.3,0,0,420,0,160,0,
0.2367,1245.6,398.1,1315.8,-1230.9,474.9,-35.4,-487.5,0,0,426,0,161,0,
0.2400,1205.1,362.7,1277.4,-1269.9,435.3,-52.5,-525.6,0,0,432,0,162,0,
0.2433,1298.1,466.2,1463.7,-1124.7,595.8,50.4,-410.7,0,0,438,0,163,0,
0.2467,1164.0,318.9,1220.1,-1325.7,386.1,-106.5,-570.3,0,0,444,0,164,0,
0.2500,1322.4,483.6,1438.2,-1137.0,569.1,62.1,-407.7,0,0,450,0,165,0,
0.2533,1214.4,372.6,1349.7,-1232.1,484.8,-47.7,-513.9,0,0,456,0,166,0,
0.2567,1267.8,425.4,1303.2,-1225.8,483.9,2.7,-475.2,0,0,462,0,167,0,
0.2600,1260.9,423.9,1415.1,-1173.3,541.2,10.8,-457.8,0,0,468,0,168,0,
0.2633,1214.1,364.5,1327.5,-1249.8,471.9,-58.8,-520.5,0,0,474,0,169,0,
0.2667,1293.0,441.9,1357.8,-1192.5,508.2,27.3,-449.4,0,0,480,0,170,0,
0.2700,1191.6,351.6,1361.4,-1230.0,482.4,-54.6,-524.7,0,0,486,0,171,0,
0.2733,1294.5,435.0,1367.7,-1180.2,528.9,22.5,-439.2,0,0,492,0,172,0,
0.2767,1191.0,341.7,1290.6,-1263.9,432.9,-74.1,-538.2,0,0,498,0,173,0,
0.2800,1284.0,433.5,1455.3,-1140.9,570.3,28.5,-434.1,0,0,504,0,174,0,
0.2833,1213.2,354.6,1272.0,-1276.8,431.4,-57.0,-527.1,0,0,510,0,175,0,
0.2867,1232.7,385.8,1382.4,-1207.5,501.3,-24.9,-489.0,0,0,516,0,176,0,
0.2900,1289.7,437.1,1432.2,-1163.1,560.4,22.8,-439.8,0,0,522,0,177,0,
0.2933,1201.8,345.3,1243.2,-1296.6,404.7,-78.0,-546.0,0,0,528,0,178,0,
0.2967,1337.4,495.3,1502.1,-1092.9,616.5,82.5,-376.2,0,0,534,0,179,0,
0.3000,1204.8,348.0,1299.6,-1266.0,441.0,-73.5,-530.7,0,0,540,0,180,0,
0.3033,1315.2,461.7,1383.3,-1170.9,536.7,40.2,-417.9,0,0,546,0,181,0,
0.3067,1251.0,412.2,1422.6,-1174.5,538.8,-6.0,-465.9,0,0,552,0,182,0,
0.3100,1257.9,393.6,1319.1,-1232.4,482.1,-19.2,-467.4,0,0,558,0,183,0,
0.3133,1313.1,457.5,1415.4,-1154.7,547.8,34.5,-423.9,0,0,564,0,184,0,
0.3167,1220.4,372.0,1367.1,-1218.6,501.3,-51.6,-496.5,0,0,570,0,185,0,
0.3200,1311.0,450.3,1355.4,-1187.1,522.9,23.7,-431.4,0,0,576,0,186,0,
0.3233,1203.0,354.3,1342.8,-1240.2,474.0,-62.7,-515.1,0,0,582,0,187,0,
0.3267,1316.4,457.5,1424.1,-1145.7,572.4,34.8,-415.5,0,0,588,0,188,0,
0.3300,1211.7,357.9,1262.4,-1275.9,423.3,-69.0,-525.6,0,0,594,0,189,0,
0.3333,1274.4,429.3,1439.7,-1159.5,553.2,11.7,-443.7,0,0,600,0,190,0,
0.3367,1248.0,393.3,1341.6,-1223.4,484.2,-35.1,-490.5,0,0,606,0,191,0,
0.3400,1195.8,348.9,1297.8,-1260.9,435.6,-66.3,-534.6,0,0,612,0,192,0,
0.3433,1308.6,462.0,1500.0,-1108.8,600.3,53.1,-411.0,0,0,618,0,193,0,
0.3467,1174.2,312.9,1236.3,-1310.1,395.1,-108.6,-579.6,0,0,624,0,194,0,
0.3500,1319.1,468.9,1442.1,-1125.0,568.8,50.4,-414.6,0,0,630,0,195,0,
0.3533,1215.6,358.2,1368.3,-1224.6,486.0,-59.7,-519.9,0,0,636,0,196,0,
0.3567,1267.8,403.5,1329.9,-1212.6,484.2,-17.4,-482.7,0,0,642,0,197,0,
0.3600,1272.0,420.3,1428.6,-1158.9,546.0,9.9,-459.0,0,0,648,0,198,0,
0.3633,1240.2,378.0,1344.3,-1224.6,490.5,-50.1,-507.0,0,0,654,0,199,0,
0.3667,1320.6,453.9,1369.2,-1169.4,529.5,28.8,-438.9,0,0,660,0,200,0,
0.3700,1218.3,363.3,1383.0,-1209.6,507.0,-49.2,-517.8,0,0,666,0,201,0,
0.3733,1314.3,451.5,1380.0,-1166.7,546.3,27.3,-443.7,0,0,672,0,202,0,
0.3767,1221.0,363.0,1317.6,-1239.0,465.9,-51.9,-529.5,0,0,678,0,203,0,
0.3800,1241.4,385.2,1396.5,-1188.0,530.1,-28.5,-493.5,0,0,684,0,204,0,
0.3833,1247.4,385.5,1360.2,-1202.4,517.2,-27.3,-499.2,0,0,690,0,205,0,
0.3867,1253.4,394.5,1357.2,-1200.3,520.2,-21.3,-488.7,0,0,696,0,206,0,
0.3900,1251.9,399.3,1351.8,-1200.3,517.8,-18.9,-483.9,0,0,702,0,207,0,
0.3933,1271.1,405.3,1370.7,-1191.6,523.2,-12.3,-484.8,0,0,708,0,208,0,
0.3967,1251.6,391.5,1370.7,-1198.8,520.5,-15.3,-483.6,0,0,714,0,209,0,
0.4000,1261.8,393.9,1374.3,-1197.9,517.2,-11.7,-492.3,0,0,720,0,210,0,
0.4033,1262.4,393.6,1374.9,-1197.3,514.8,-13.2,-497.4,0,0,726,0,211,0,
0.4067,1263.6,392.4,1368.6,-1195.5,516.3,-10.8,-495.9,0,0,732,0,212,0,
0.4100,1261.2,390.6,1366.8,-1197.6,516.0,-9.0,-497.7,0,0,738,0,213,0,
0.4133,1259.1,390.6,1364.7,-1196.4,513.9,-18.6,-507.6,0,0,744,0,214,0,
0.4167,1246.2,381.0,1352.4,-1201.8,509.7,-26.1,-514.2,0,0,750,0,215,0,
0.4200,1254.3,388.8,1358.4,-1203.0,503.4,-29.4,-512.4,0,0,756,0,216,0,
0.4233,1260.6,391.2,1359.6,-1203.3,502.8,-24.9,-510.6,0,0,762,0,217,0,
0.4267,1255.8,386.1,1356.6,-1208.7,500.1,-29.7,-518.7,0,0,768,0,218,0,
0.4300,1256.1,382.2,1359.9,-1208.1,496.8,-39.6,-519.9,0,0,774,0,219,0,
0.4333,1257.9,387.3,1356.6,-1207.5,503.4,-21.6,-510.3,0,0,780,0,220,0,
0.4367,1265.4,388.5,1359.9,-1202.4,510.0,-16.8,-508.5,0,0,786,0,221,0,
0.4400,1272.0,395.1,1362.6,-1197.9,513.9,-12.3,-501.0,0,0,792,0,222,0,
0.4433,1270.5,394.2,1364.4,-1198.8,513.9,-13.5,-501.6,0,0,798,0,223,0,
0.4467,1271.1,398.1,1356.6,-1198.5,514.2,-11.4,-499.5,0,0,804,0,224,0,
0.4500,1274.4,398.7,1359.0,-1197.3,516.9,-1.5,-495.6,0,0,810,0,225,0,
0.4533,1269.9,386.1,1355.7,-1200.6,511.8,-16.8,-509.1,0,0,816,0,226,0,
0.4567,1264.2,391.2,1361.7,-1200.3,512.4,-12.6,-506.7,0,0,822,0,227,0,
0.4600,1273.5,395.1,1360.8,-1200.3,510.0,-17.4,-503.4,0,0,828,0,228,0,
0.4633,1272.0,393.0,1361.4,-1202.4,509.4,-14.1,-504.6,0,0,834,0,229,0,
0.4667,1268.4,391.8,1357.2,-1202.1,507.0,-21.6,-502.5,0,0,840,0,230,0,
0.4700,1271.1,393.6,1371.0,-1201.8,510.6,-12.6,-502.8,0,0,846,0,231,0,
0.4733,1271.1,400.2,1373.1,-1198.5,513.3,-10.5,-494.7,0,0,852,0,232,0,
0.4767,1273.8,398.1,1366.8,-1196.7,519.0,-6.3,-496.5,0,0,858,0,233,0,
0.4800,1281.6,388.2,1369.2,-1195.8,517.5,-8.7,-500.7,0,0,864,0,234,0,
0.4833,1267.5,381.9,1380.3,-1200.9,512.1,-8.7,-509.1,0,0,870,0,235,0,
0.4867,1273.8,380.7,1370.4,-1203.6,503.7,-27.9,-516.9,0,0,876,0,236,0,
0.4900,1263.3,383.4,1367.4,-1200.9,500.7,-16.2,-518.7,0,0,882,0,237,0,
0.4933,1264.2,383.7,1356.3,-1205.7,498.3,-21.3,-518.7,0,0,888,0,238,0,
0.4967,1274.1,392.4,1367.1,-1199.7,498.9,-22.2,-510.0,0,0,894,0,239,0,
0.5000,1272.3,393.9,1377.9,-1197.6,504.6,-18.6,-504.6,0,0,900,0,240,0,
0.5033,1269.3,387.9,1377.3,-1197.9,511.8,-16.8,-503.4,0,0,906,0,241,0,
0.5067,1286.1,401.1,1368.6,-1190.1,515.1,-4.8,-498.0,0,0,912,0,242,0,
0.5100,1281.3,393.6,1371.6,-1192.2,513.6,-9.9,-496.5,0,0,918,0,243,0,
0.5133,1272.9,384.3,1370.7,-1197.0,506.4,-17.7,-504.6,0,0,924,0,244,0,
0.5167,1264.8,382.2,1364.7,-1197.6,504.3,-20.4,-505.5,0,0,930,0,245,0,
0.5200,1264.5,372.9,1353.6,-1200.0,504.6,-14.1,-515.4,0,0,936,0,246,0,
0.5233,1263.9,376.2,1346.7,-1207.2,497.1,-19.5,-518.7,0,0,942,0,247,0,
0.5267,1254.9,366.9,1347.9,-1211.7,495.3,-34.2,-533.1,0,0,948,0,248,0,
0.5300,1261.5,365.7,1347.9,-1214.7,491.7,-37.8,-531.0,0,0,954,0,249,0,
0.5333,1260.6,364.8,1346.4,-1215.3,490.5,-42.6,-532.8,0,0,960,0,250,0,
0.5367,1251.0,359.4,1339.8,-1220.7,482.7,-45.9,-537.0,0,0,966,0,251,0,
0.5400,1242.9,345.9,1338.3,-1223.4,478.2,-48.0,-545.4,0,0,972,0,252,0,
0.5433,1249.8,354.0,1346.4,-1227.9,481.5,-41.1,-538.8,0,0,978,0,253,0,
0.5467,1243.5,358.2,1350.3,-1227.0,481.8,-40.2,-544.8,0,0,984,0,254,0,
0.5500,1249.2,354.3,1345.2,-1233.6,478.5,-39.0,-541.2,0,0,990,0,255,0,
0.5533,1245.6,350.1,1335.6,-1231.8,476.4,-41.7,-542.4,0,0,996,0,0,0,
0.5567,1238.4,340.5,1334.4,-1238.1,467.1,-47.1,-549.9,0,0,1002,0,1,0,
0.5600,1229.4,338.7,1318.8,-1240.8,465.6,-48.3,-547.5,0,0,1008,0,2,0,
0.5633,1242.3,334.2,1320.3,-1240.8,462.3,-50.1,-558.3,0,0,1014,0,3,0,
0.5667,1234.2,342.0,1330.8,-1234.2,462.3,-55.5,-554.7,0,0,1020,0,4,0,
0.5700,1240.2,340.5,1334.7,-1236.0,465.0,-57.0,-553.5,0,0,1026,0,5,0,
0.5733,1227.3,325.2,1322.7,-1242.3,459.0,-68.7,-570.0,0,0,1032,0,6,0,
0.5767,1235.4,329.7,1320.3,-1248.9,456.0,-65.7,-564.0,0,0,1038,0,7,0,
0.5800,1222.5,320.4,1318.5,-1251.6,452.1,-69.0,-573.0,0,0,1044,0,8,0,
0.5833,1218.9,311.1,1307.7,-1255.5,450.0,-71.7,-573.0,0,0,1050,0,9,0,
0.5867,1224.9,316.2,1307.1,-1256.7,444.9,-75.0,-577.2,0,0,1056,0,10,0,
0.5900,1213.5,314.1,1305.9,-1256.4,443.4,-72.6,-581.7,0,0,1062,0,11,0,
0.5933,1203.6,294.3,1293.6,-1269.0,437.7,-79.8,-598.2,0,0,1068,0,12,0,
0.5967,1201.2,292.5,1293.0,-1269.9,434.7,-93.9,-599.1,0,0,1074,0,13,0,
0.6000,1215.9,309.6,1296.9,-1264.2,439.8,-81.3,-586.2,0,0,1080,0,14,0,
0.6033,1220.1,315.9,1305.3,-1255.2,451.2,-74.1,-581.4,0,0,1086,0,15,0,
0.6067,1219.2,319.8,1308.6,-1251.6,452.7,-72.9,-587.4,0,0,1092,0,16,0,
0.6100,1222.5,310.5,1297.8,-1251.0,454.5,-69.9,-587.4,0,0,1098,0,17,0,
0.6133,1218.3,314.7,1305.6,-1246.5,453.0,-65.4,-581.7,0,0,1104,0,18,0,
0.6167,1222.8,309.9,1311.3,-1247.7,461.1,-55.5,-581.7,0,0,1110,0,19,0,
0.6200,1221.9,311.1,1308.6,-1243.8,457.8,-57.9,-583.8,0,0,1116,0,20,0,
0.6233,1223.4,312.3,1307.1,-1243.8,456.6,-73.2,-584.7,0,0,1122,0,21,0,
0.6267,1230.9,317.7,1302.9,-1244.1,456.3,-71.4,-580.2,0,0,1128,0,22,0,
0.6300,1214.4,310.5,1307.1,-1244.4,454.2,-70.5,-584.7,0,0,1134,0,23,0,
0.6333,1216.5,311.4,1312.2,-1240.2,459.9,-70.2,-586.5,0,0,1140,0,24,0,
0.6367,1227.9,319.8,1311.0,-1234.8,464.1,-62.7,-577.5,0,0,1146,0,25,0,
0.6400,1217.7,312.9,1305.9,-1243.5,456.9,-57.0,-583.8,0,0,1152,0,26,0,
0.6433,1220.7,315.6,1309.8,-1239.3,459.3,-63.9,-585.6,0,0,1158,0,27,0,
0.6467,1222.8,314.4,1302.3,-1245.6,456.9,-69.6,-588.9,0,0,1164,0,28,0,
0.6500,1219.5,310.2,1299.6,-1246.2,458.4,-72.9,-590.4,0,0,1170,0,29,0,
0.6533,1219.2,311.7,1302.6,-1243.8,457.2,-56.1,-582.6,0,0,1176,0,30,0,
0.6567,1231.8,322.2,1308.9,-1235.7,459.6,-53.7,-579.6,0,0,1182,0,31,0,
0.6600,1231.8,319.8,1316.7,-1235.1,461.4,-51.0,-578.1,0,0,1188,0,32,0,
0.6633,1219.5,306.6,1318.8,-1236.0,458.7,-54.9,-585.9,0,0,1194,0,33,0,
0.6667,1217.7,303.6,1308.6,-1238.7,456.0,-56.4,-594.3,0,0,1200,0,34,0,
0.6700,1215.3,306.6,1312.2,-1236.3,457.5,-54.3,-595.8,0,0,1206,0,35,0,
0.6733,1223.1,315.0,1324.2,-1236.0,462.0,-52.2,-590.4,0,0,1212,0,36,0,
0.6767,1225.5,313.5,1320.9,-1233.6,459.6,-53.1,-586.2,0,0,1218,0,37,0,
0.6800,1222.2,314.7,1318.2,-1236.3,458.1,-54.0,-600.3,0,0,1224,0,38,0,
0.6833,1225.8,318.9,1320.6,-1233.9,461.4,-48.3,-599.1,0,0,1230,0,39,0,
0.6867,1219.8,314.1,1324.2,-1232.4,464.7,-54.3,-594.9,0,0,1236,0,40,0,
0.6900,1222.2,318.0,1327.8,-1229.4,465.3,-52.8,-593.4,0,0,1242,0,41,0,
0.6933,1226.4,320.1,1332.3,-1228.8,468.6,-50.4,-597.6,0,0,1248,0,42,0,
0.6967,1226.7,326.7,1354.5,-1224.9,469.8,-42.9,-594.0,0,0,1254,0,43,0,
0.7000,1226.7,319.5,1329.9,-1236.3,464.4,-47.4,-595.5,0,0,1260,0,44,0,
0.7033,1239.9,331.5,1334.4,-1229.7,469.5,-32.4,-586.5,0,0,1266,0,45,0,
0.7067,1234.5,324.0,1334.4,-1232.1,468.0,-42.0,-593.7,0,0,1272,0,46,0,
0.7100,1229.7,324.3,1336.5,-1230.9,464.4,-38.7,-597.3,0,0,1278,0,47,0,
0.7133,1224.3,321.6,1340.1,-1233.9,465.3,-45.3,-598.5,0,0,1284,0,48,0,
0.7167,1221.3,314.4,1336.8,-1231.8,457.8,-37.5,-597.6,0,0,1290,0,49,0,
0.7200,1217.1,318.6,1336.2,-1236.6,459.0,-36.9,-590.4,0,0,1296,0,50,0,
0.7233,1218.6,320.7,1343.1,-1233.0,460.8,-42.9,-600.6,0,0,1302,0,51,0,
0.7267,1219.5,323.7,1353.3,-1230.0,458.4,-48.6,-596.4,0,0,1308,0,52,0,
0.7300,1217.4,319.5,1345.5,-1230.6,459.6,-47.4,-591.9,0,0,1314,0,53,0,
0.7333,1230.0,323.7,1345.5,-1227.0,464.4,-41.4,-591.6,0,0,1320,0,54,0,
0.7367,1240.5,327.6,1342.8,-1217.1,468.3,-29.4,-585.3,0,0,1326,0,55,0,
0.7400,1235.7,324.3,1339.5,-1223.7,462.3,-34.2,-588.3,0,0,1332,0,56,0,
0.7433,1234.2,322.8,1338.0,-1225.5,462.6,-33.9,-590.7,0,0,1338,0,57,0,
0.7467,1236.3,325.5,1339.2,-1224.3,461.7,-39.9,-586.2,0,0,1344,0,58,0,
0.7500,1227.0,323.4,1344.0,-1220.4,463.2,-37.5,-593.1,0,0,1350,0,59,0,
0.7533,1231.5,316.8,1343.7,-1224.0,460.8,-34.5,-594.0,0,0,1356,0,60,0,
0.7567,1229.4,312.6,1335.9,-1224.0,459.6,-27.3,-589.8,0,0,1362,0,61,0,
0.7600,1228.8,311.7,1335.9,-1227.3,460.8,-29.4,-591.0,0,0,1368,0,62,0,
0.7633,1222.8,320.7,1347.9,-1226.7,459.6,-38.7,-593.4,0,0,1374,0,63,0,
0.7667,1230.3,327.3,1344.3,-1221.6,468.0,-24.3,-590.1,0,0,1380,0,64,0,
0.7700,1218.9,311.7,1337.4,-1227.6,462.0,-41.1,-596.4,0,0,1386,0,65,0,
0.7733,1226.4,313.8,1344.0,-1227.6,460.2,-29.7,-592.2,0,0,1392,0,66,0,
0.7767,1235.4,318.9,1344.9,-1223.1,459.3,-30.3,-582.3,0,0,1398,0,67,0,
0.7800,1230.3,317.7,1341.6,-1229.7,457.8,-35.4,-591.3,0,0,1404,0,68,0,
0.7833,1220.4,309.0,1343.4,-1233.6,454.2,-44.1,-599.1,0,0,1410,0,69,0,
0.7867,1219.5,305.4,1329.6,-1232.7,452.4,-42.0,-598.2,0,0,1416,0,70,0,
0.7900,1224.0,312.9,1338.3,-1231.8,453.3,-37.2,-595.2,0,0,1422,0,71,0,
0.7933,1230.9,313.8,1345.2,-1227.3,457.8,-28.8,-592.5,0,0,1428,0,72,0,
0.7967,1220.1,313.5,1342.8,-1229.4,454.5,-31.2,-588.0,0,0,1434,0,73,0,
0.8000,1228.5,319.5,1352.1,-1225.8,456.6,-31.5,-598.5,0,0,1440,0,74,0,
0.8033,1235.7,319.8,1353.9,-1225.5,456.0,-28.5,-596.7,0,0,1446,0,75,0,
0.8067,1236.9,320.4,1346.7,-1224.0,457.8,-30.9,-591.9,0,0,1452,0,76,0,
0.8100,1234.8,315.9,1347.0,-1219.5,459.3,-33.3,-592.5,0,0,1458,0,77,0,
0.8133,1226.7,305.1,1349.1,-1225.2,459.3,-36.0,-599.1,0,0,1464,0,78,0,
0.8167,1226.4,304.8,1341.6,-1227.9,453.0,-33.6,-593.1,0,0,1470,0,79,0,
0.8200,1233.6,311.7,1339.8,-1226.4,451.5,-22.8,-591.6,0,0,1476,0,80,0,
0.8233,1234.2,304.8,1338.6,-1230.3,450.0,-28.5,-597.6,0,0,1482,0,81,0,
0.8267,1223.1,307.8,1338.9,-1231.8,446.4,-33.9,-597.6,0,0,1488,0,82,0,
0.8300,1222.8,309.6,1344.6,-1233.9,450.3,-35.1,-590.1,0,0,1494,0,83,0,
0.8333,1225.8,305.7,1334.1,-1233.6,450.0,-33.3,-596.7,0,0,1500,0,84,0,
0.8367,1232.4,310.5,1341.3,-1225.8,452.7,-29.1,-592.2,0,0,1506,0,85,0,
0.8400,1228.5,306.9,1332.0,-1230.9,450.9,-39.0,-598.8,0,0,1512,0,86,0,
0.8433,1232.7,316.2,1339.2,-1228.8,456.6,-33.6,-591.6,0,0,1518,0,87,0,
0.8467,1224.9,305.1,1333.8,-1235.1,453.3,-39.6,-599.1,0,0,1524,0,88,0,
0.8500,1220.7,298.8,1332.3,-1236.9,455.1,-36.6,-596.7,0,0,1530,0,89,0,
0.8533,1231.5,310.8,1347.6,-1225.8,462.0,-28.8,-589.2,0,0,1536,0,90,0,
0.8567,1238.4,319.2,1352.1,-1219.2,464.4,-23.7,-588.0,0,0,1542,0,91,0,
0.8600,1243.5,323.4,1351.2,-1220.1,467.7,-20.1,-581.4,0,0,1548,0,92,0,
0.8633,1239.3,329.7,1349.7,-1218.9,461.7,-19.2,-576.3,0,0,1554,0,93,0,
0.8667,1245.3,332.4,1348.2,-1214.4,465.3,-12.0,-574.5,0,0,1560,0,94,0,
0.8700,1239.3,328.5,1350.9,-1214.4,467.4,-13.2,-569.4,0,0,1566,0,95,0,
0.8733,1240.5,317.7,1353.0,-1216.5,469.5,-18.3,-575.7,0,0,1572,0,96,0,
0.8767,1239.9,318.6,1350.9,-1209.3,469.8,-18.6,-585.3,0,0,1578,0,97,0,
0.8800,1229.4,311.1,1349.1,-1216.5,463.5,-30.0,-585.3,0,0,1584,0,98,0,
0.8833,1228.5,314.7,1348.8,-1217.1,460.5,-21.6,-585.0,0,0,1590,0,99,0,
0.8867,1230.0,315.3,1350.3,-1217.7,459.9,-30.3,-589.8,0,0,1596,0,100,0,
0.8900,1231.5,315.0,1349.4,-1215.3,463.5,-29.7,-584.4,0,0,1602,0,101,0,
0.8933,1236.9,308.4,1343.4,-1213.5,464.7,-26.7,-581.7,0,0,1608,0,102,0,
0.8967,1230.3,320.1,1344.0,-1206.9,464.1,-16.8,-574.8,0,0,1614,0,103,0,
0.9000,1233.9,325.8,1346.1,-1209.6,466.2,-13.2,-576.0,0,0,1620,0,104,0,
0.9033,1242.3,325.2,1347.6,-1206.6,464.4,-19.5,-576.6,0,0,1626,0,105,0,
0.9067,1244.4,328.5,1355.1,-1205.7,464.1,-26.4,-572.7,0,0,1632,0,106,0,
0.9100,1240.2,324.6,1350.3,-1214.1,461.4,-26.1,-575.4,0,0,1638,0,107,0,
0.9133,1233.9,313.5,1344.0,-1213.8,461.7,-18.0,-576.3,0,0,1644,0,108,0,
0.9167,1223.1,313.2,1343.7,-1216.8,453.0,-24.6,-577.2,0,0,1650,0,109,0,
0.9200,1221.3,311.4,1339.2,-1221.3,454.2,-35.7,-588.6,0,0,1656,0,110,0,
0.9233,1229.1,315.0,1336.8,-1216.8,456.3,-27.3,-577.5,0,0,1662,0,111,0,
0.9267,1222.8,309.3,1330.8,-1216.2,457.8,-25.8,-580.2,0,0,1668,0,112,0,
0.9300,1227.3,307.8,1320.9,-1222.8,450.6,-27.6,-581.4,0,0,1674,0,113,0,
0.9333,1224.3,296.7,1318.2,-1225.2,447.6,-41.1,-585.3,0,0,1680,0,114,0,
0.9367,1222.5,301.2,1326.0,-1225.5,447.3,-31.8,-594.6,0,0,1686,0,115,0,
0.9400,1230.6,304.8,1327.2,-1224.9,452.1,-31.5,-590.7,0,0,1692,0,116,0,
0.9433,1225.5,297.3,1318.2,-1228.5,450.9,-23.7,-588.0,0,0,1698,0,117,0,
0.9467,1212.6,290.4,1321.8,-1232.1,442.5,-35.7,-602.4,0,0,1704,0,118,0,
0.9500,1212.3,282.0,1316.1,-1243.5,439.8,-34.8,-604.8,0,0,1710,0,119,0,
0.9533,1217.1,290.1,1329.3,-1236.0,435.6,-42.6,-598.5,0,0,1716,0,120,0,
0.9567,1217.7,290.7,1334.4,-1229.1,449.1,-35.7,-589.8,0,0,1722,0,121,0,
0.9600,1221.6,294.6,1337.4,-1227.0,448.5,-31.2,-588.9,0,0,1728,0,122,0,
0.9633,1221.6,298.2,1345.5,-1226.4,455.7,-21.0,-588.3,0,0,1734,0,123,0,
0.9667,1232.4,305.1,1350.9,-1221.3,456.0,-14.4,-587.7,0,0,1740,0,124,0,
0.9700,1235.1,305.7,1353.6,-1220.4,450.9,-21.6,-592.8,0,0,1746,0,125,0,
0.9733,1226.1,302.7,1346.1,-1215.6,451.5,-26.1,-586.2,0,0,1752,0,126,0,
0.9767,1230.6,300.9,1348.8,-1216.5,455.4,-23.7,-593.1,0,0,1758,0,127,0,
0.9800,1233.3,307.2,1353.9,-1214.7,459.0,-17.1,-584.4,0,0,1764,0,128,0,
0.9833,1236.3,311.7,1356.6,-1207.5,464.4,-11.4,-574.5,0,0,1770,0,129,0,
0.9867,1237.8,308.1,1351.2,-1209.0,463.2,-16.8,-584.4,0,0,1776,0,130,0,
0.9900,1226.7,297.0,1347.6,-1211.1,455.7,-23.4,-591.6,0,0,1782,0,131,0,
0.9933,1226.4,300.0,1350.6,-1215.9,456.6,-26.4,-589.5,0,0,1788,0,132,0,
0.9967,1229.4,300.3,1356.6,-1217.7,451.8,-26.7,-597.3,0,0,1794,0,133,0,
1.0000,1215.3,299.7,1337.1,-1225.2,444.9,-35.7,-606.0,0,0,1800,0,134,0,
1.0033,1221.6,305.7,1335.9,-1218.3,452.1,-23.4,-597.3,0,0,1806,0,135,0,
1.0067,1231.2,300.9,1338.3,-1216.8,458.7,-13.5,-595.5,0,0,1812,0,136,0,
1.0100,1231.5,306.6,1348.8,-1214.7,461.7,-9.3,-592.2,0,0,1818,0,137,0,
1.0133,1236.3,311.7,1356.9,-1210.8,461.1,-10.5,-585.3,0,0,1824,0,138,0,
1.0167,1238.4,316.2,1364.4,-1201.8,470.4,-4.2,-576.0,0,0,1830,0,139,0,
1.0200,1240.2,316.5,1361.4,-1203.3,468.3,-6.9,-584.1,0,0,1836,0,140,0,
1.0233,1240.5,316.2,1359.9,-1205.7,472.5,-1.5,-585.0,0,0,1842,0,141,0,
1.0267,1246.5,310.8,1355.7,-1205.4,471.3,-0.9,-590.4,0,0,1848,0,142,0,
1.0300,1239.3,305.4,1361.4,-1208.1,466.2,-6.9,-595.2,0,0,1854,0,143,0,
1.0333,1246.2,307.5,1362.3,-1205.1,470.4,-1.8,-588.3,0,0,1860,0,144,0,
1.0367,1244.4,309.3,1358.7,-1208.4,476.1,8.4,-583.8,0,0,1866,0,145,0,
1.0400,1244.4,309.9,1359.6,-1206.0,474.0,3.6,-597.6,0,0,1872,0,146,0,
1.0433,1244.4,311.1,1358.7,-1207.2,470.1,2.1,-591.3,0,0,1878,0,147,0,
1.0467,1249.2,314.4,1374.0,-1199.1,471.0,-6.3,-588.6,0,0,1884,0,148,0,
1.0500,1242.6,314.4,1372.2,-1206.3,474.6,2.4,-593.1,0,0,1890,0,149,0,
1.0533,1239.9,309.6,1371.9,-1203.6,467.7,-7.8,-597.0,0,0,1896,0,150,0,
1.0567,1248.9,314.4,1369.5,-1202.1,471.6,7.2,-589.8,0,0,1902,0,151,0,
1.0600,1251.3,308.4,1374.6,-1204.2,467.4,2.4,-594.9,0,0,1908,0,152,0,
1.0633,1246.8,306.9,1361.7,-1208.1,462.3,0.3,-597.6,0,0,1914,0,153,0,
1.0667,1236.3,302.7,1350.6,-1207.5,459.6,-7.8,-601.2,0,0,1920,0,154,0,
1.0700,1254.6,311.7,1367.1,-1207.5,464.1,6.0,-587.4,0,0,1926,0,155,0,
1.0733,1242.9,306.6,1370.4,-1205.7,467.1,4.5,-588.9,0,0,1932,0,156,0,
1.0767,1258.5,315.6,1361.7,-1197.0,474.6,14.7,-579.0,0,0,1938,0,157,0,
1.0800,1264.5,321.9,1374.9,-1191.6,480.0,11.1,-577.2,0,0,1944,0,158,0,
1.0833,1255.8,314.4,1369.8,-1197.0,475.5,3.3,-587.1,0,0,1950,0,159,0,
1.0867,1260.6,315.6,1379.1,-1192.2,481.8,7.2,-584.7,0,0,1956,0,160,0,
1.0900,1269.6,323.1,1379.1,-1185.3,485.7,15.3,-574.5,0,0,1962,0,161,0,
1.0933,1271.7,317.7,1374.0,-1185.0,489.6,16.8,-577.5,0,0,1968,0,162,0,
1.0967,1265.4,322.5,1375.2,-1185.0,486.6,14.7,-576.0,0,0,1974,0,163,0,
1.1000,1272.0,321.0,1368.0,-1191.0,482.7,16.8,-570.9,0,0,1980,0,164,0,
1.1033,1262.4,323.1,1371.6,-1191.3,489.6,20.1,-571.5,0,0,1986,0,165,0,
1.1067,1268.4,325.2,1371.3,-1190.4,488.1,17.4,-571.5,0,0,1992,0,166,0,
1.1100,1270.5,328.5,1372.5,-1185.9,494.1,24.9,-570.6,0,0,1998,0,167,0,
1.1133,1262.4,327.9,1368.0,-1194.6,489.3,18.6,-579.9,0,0,2004,0,168,0,
1.1167,1265.1,325.8,1360.8,-1195.5,485.1,22.2,-579.3,0,0,2010,0,169,0,
1.1200,1263.9,320.4,1352.4,-1196.1,481.5,21.6,-574.8,0,0,2016,0,170,0,
1.1233,1253.1,319.2,1354.5,-1197.0,476.4,3.9,-576.0,0,0,2022,0,171,0,
1.1267,1255.8,315.3,1346.4,-1203.9,471.6,-5.4,-584.4,0,0,2028,0,172,0,
1.1300,1250.4,313.5,1351.5,-1205.1,473.7,1.2,-577.5,0,0,2034,0,173,0,
1.1333,1246.2,312.6,1361.7,-1203.3,471.0,3.6,-579.6,0,0,2040,0,174,0,
1.1367,1270.2,331.8,1363.5,-1193.7,480.0,11.7,-565.8,0,0,2046,0,175,0,
1.1400,1268.1,334.5,1364.1,-1189.2,481.2,14.7,-571.5,0,0,2052,0,176,0,
1.1433,1266.3,323.7,1368.6,-1192.2,475.2,11.7,-579.9,0,0,2058,0,177,0,
1.1467,1263.3,328.2,1368.9,-1193.1,473.4,15.9,-570.9,0,0,2064,0,178,0,
1.1500,1270.5,327.0,1371.6,-1192.8,474.6,19.5,-571.2,0,0,2070,0,179,0,
1.1533,1265.7,327.3,1374.9,-1189.5,481.2,23.1,-568.2,0,0,2076,0,180,0,
1.1567,1268.4,332.1,1380.3,-1190.7,477.0,20.4,-570.3,0,0,2082,0,181,0,
1.1600,1263.0,336.3,1380.9,-1188.0,475.2,18.0,-571.5,0,0,2088,0,182,0,
1.1633,1272.3,338.4,1366.8,-1187.4,475.5,15.3,-576.3,0,0,2094,0,183,0,
1.1667,1267.8,337.2,1355.7,-1186.5,472.5,16.5,-577.8,0,0,2100,0,184,0,
1.1700,1261.2,326.7,1355.4,-1191.9,468.3,12.6,-578.4,0,0,2106,0,185,0,
1.1733,1263.0,327.3,1356.9,-1192.8,466.5,25.2,-573.9,0,0,2112,0,186,0,
1.1767,1263.0,328.2,1368.3,-1187.7,471.3,30.9,-565.5,0,0,2118,0,187,0,
1.1800,1263.6,326.1,1373.7,-1183.2,472.8,13.8,-576.0,0,0,2124,0,188,0,
1.1833,1267.8,330.6,1369.8,-1184.1,472.2,19.8,-568.2,0,0,2130,0,189,0,
1.1867,1275.3,330.9,1371.3,-1179.6,471.0,23.7,-570.3,0,0,2136,0,190,0,
1.1900,1267.8,322.8,1367.1,-1182.0,468.0,26.1,-573.9,0,0,2142,0,191,0,
1.1933,1272.6,333.9,1377.6,-1177.2,473.4,30.9,-573.0,0,0,2148,0,192,0,
1.1967,1276.8,336.9,1366.5,-1180.2,474.6,27.3,-573.3,0,0,2154,0,193,0,
1.2000,1273.8,339.9,1377.9,-1177.2,480.3,25.5,-578.7,0,0,2160,0,194,0,
1.2033,1266.9,329.7,1377.0,-1180.5,480.3,22.2,-579.6,0,0,2166,0,195,0,
1.2067,1269.3,329.4,1366.5,-1180.5,472.2,16.2,-576.3,0,0,2172,0,196,0,
1.2100,1255.5,309.3,1360.8,-1188.6,463.5,10.2,-588.9,0,0,2178,0,197,0,
1.2133,1252.5,306.6,1351.5,-1189.2,462.3,6.3,-596.4,0,0,2184,0,198,0,
1.2167,1256.4,313.2,1358.7,-1183.2,462.6,9.6,-588.0,0,0,2190,0,199,0,
1.2200,1256.4,316.8,1357.2,-1185.3,463.5,-0.6,-589.8,0,0,2196,0,200,0,
1.2233,1244.4,304.8,1356.6,-1184.7,464.7,3.9,-599.1,0,0,2202,0,201,0,
1.2267,1263.6,321.9,1368.0,-1181.4,469.2,12.9,-583.5,0,0,2208,0,202,0,
1.2300,1258.5,320.4,1366.8,-1185.0,463.5,16.5,-584.7,0,0,2214,0,203,0,
1.2333,1256.4,316.5,1363.8,-1188.3,466.5,16.5,-592.2,0,0,2220,0,204,0,
1.2367,1252.5,321.0,1366.2,-1188.0,463.5,11.7,-595.2,0,0,2226,0,205,0,
1.2400,1258.5,317.7,1356.9,-1191.9,463.8,14.4,-590.1,0,0,2232,0,206,0,
1.2433,1253.4,316.5,1350.6,-1194.0,460.8,13.8,-592.5,0,0,2238,0,207,0,
1.2467,1254.9,319.8,1361.7,-1193.4,459.3,13.2,-593.4,0,0,2244,0,208,0,
1.2500,1250.1,318.9,1353.9,-1194.9,458.7,9.9,-603.6,0,0,2250,0,209,0,
1.2533,1249.8,314.1,1356.0,-1195.5,457.5,12.6,-602.7,0,0,2256,0,210,0,
1.2567,1259.4,327.3,1360.5,-1192.2,460.5,18.6,-597.9,0,0,2262,0,211,0,
1.2600,1266.3,334.2,1373.4,-1182.0,470.4,18.9,-596.1,0,0,2268,0,212,0,
1.2633,1257.9,327.6,1374.3,-1187.1,457.2,15.9,-594.0,0,0,2274,0,213,0,
1.2667,1250.4,321.0,1368.6,-1195.2,457.8,17.4,-597.6,0,0,2280,0,214,0,
1.2700,1255.8,320.1,1356.9,-1198.5,456.0,15.0,-604.8,0,0,2286,0,215,0,
1.2733,1256.1,323.1,1359.9,-1198.2,460.8,20.4,-602.1,0,0,2292,0,216,0,
1.2767,1248.0,313.5,1351.5,-1203.3,452.7,6.3,-607.8,0,0,2298,0,217,0,
1.2800,1248.9,326.1,1359.3,-1195.2,456.9,9.0,-594.9,0,0,2304,0,218,0,
1.2833,1258.2,320.4,1357.5,-1194.9,456.9,15.0,-597.9,0,0,2310,0,219,0,
1.2867,1251.3,321.9,1355.7,-1188.3,462.3,20.7,-603.3,0,0,2316,0,220,0,
1.2900,1269.9,337.8,1374.0,-1178.4,465.0,35.7,-582.6,0,0,2322,0,221,0,
1.2933,1271.7,338.4,1377.9,-1177.2,464.1,34.8,-581.7,0,0,2328,0,222,0,
1.2967,1266.9,337.5,1382.4,-1172.4,467.1,38.4,-582.6,0,0,2334,0,223,0,
1.3000,1268.7,333.0,1381.8,-1170.6,470.7,45.9,-579.0,0,0,2340,0,224,0,
1.3033,1262.7,329.7,1378.8,-1177.8,468.0,33.6,-582.9,0,0,2346,0,225,0,
1.3067,1264.2,327.9,1377.6,-1176.9,463.2,28.2,-591.6,0,0,2352,0,226,0,
1.3100,1258.5,328.2,1373.4,-1174.8,463.8,28.2,-594.3,0,0,2358,0,227,0,
1.3133,1266.0,327.0,1372.5,-1177.5,463.8,30.0,-591.6,0,0,2364,0,228,0,
1.3167,1267.2,337.8,1383.0,-1164.6,477.3,43.8,-578.4,0,0,2370,0,229,0,
1.3200,1283.4,336.3,1376.1,-1162.2,480.9,46.5,-576.0,0,0,2376,0,230,0,
1.3233,1268.4,332.4,1385.7,-1157.4,484.5,48.0,-575.4,0,0,2382,0,231,0,
1.3267,1277.4,335.4,1385.7,-1154.1,488.1,54.0,-577.5,0,0,2388,0,232,0,
1.3300,1286.1,345.0,1394.4,-1144.5,491.4,48.0,-566.7,0,0,2394,0,233,0,
1.3333,1295.4,352.8,1384.8,-1147.8,491.7,62.1,-561.6,0,0,2400,0,234,0,
1.3367,1294.5,347.7,1398.9,-1145.1,488.4,54.3,-566.4,0,0,2406,0,235,0,
1.3400,1294.2,345.3,1392.9,-1142.4,496.2,55.5,-567.6,0,0,2412,0,236,0,
1.3433,1284.3,345.3,1389.9,-1146.6,496.8,57.3,-564.3,0,0,2418,0,237,0,
1.3467,1290.0,344.4,1386.3,-1149.9,492.9,53.4,-577.2,0,0,2424,0,238,0,
1.3500,1280.4,340.8,1391.1,-1157.7,482.4,49.2,-575.7,0,0,2430,0,239,0,
1.3533,1279.2,329.7,1382.1,-1162.5,479.4,39.3,-590.1,0,0,2436,0,240,0,
1.3567,1276.8,331.2,1383.3,-1159.5,480.9,41.1,-591.3,0,0,2442,0,241,0,
1.3600,1282.2,331.5,1384.5,-1159.5,484.5,46.5,-582.0,0,0,2448,0,242,0,
1.3633,1270.8,323.4,1384.5,-1163.7,478.8,40.2,-588.9,0,0,2454,0,243,0,
1.3667,1276.8,327.9,1386.6,-1160.4,480.3,41.4,-588.3,0,0,2460,0,244,0,
1.3700,1278.3,324.3,1390.2,-1159.8,478.2,36.9,-594.3,0,0,2466,0,245,0,
1.3733,1275.6,326.7,1384.8,-1160.7,477.0,41.4,-588.0,0,0,2472,0,246,0,
1.3767,1274.1,328.5,1384.8,-1158.0,472.8,49.2,-588.3,0,0,2478,0,247,0,
1.3800,1280.1,332.7,1389.6,-1157.7,478.8,58.5,-582.0,0,0,2484,0,248,0,
1.3833,1275.6,330.9,1395.3,-1162.2,473.4,34.8,-585.9,0,0,2490,0,249,0,
1.3867,1267.2,322.2,1391.4,-1170.3,469.2,30.3,-594.0,0,0,2496,0,250,0,
1.3900,1262.4,317.1,1378.8,-1173.0,466.2,32.7,-596.1,0,0,2502,0,251,0,
1.3933,1278.0,330.6,1388.1,-1168.8,470.4,37.5,-589.5,0,0,2508,0,252,0,
1.3967,1284.6,348.6,1398.0,-1160.1,481.5,57.6,-573.6,0,0,2514,0,253,0,
1.4000,1288.8,348.6,1403.1,-1156.8,482.7,54.0,-582.3,0,0,2520,0,254,0,
1.4033,1278.3,343.2,1396.8,-1157.4,482.1,41.1,-586.8,0,0,2526,0,255,0,
1.4067,1276.2,338.4,1389.9,-1160.4,471.0,33.9,-594.3,0,0,2532,0,0,0,
1.4100,1265.1,331.2,1377.3,-1166.4,467.4,33.0,-598.8,0,0,2538,0,1,0,
1.4133,1262.4,319.8,1378.8,-1176.0,464.7,32.7,-600.9,0,0,2544,0,2,0,
1.4167,1275.9,332.7,1388.1,-1164.3,471.6,39.9,-588.3,0,0,2550,0,3,0,
1.4200,1271.7,324.3,1387.2,-1167.9,475.5,42.3,-593.7,0,0,2556,0,4,0,
1.4233,1269.0,322.2,1379.1,-1173.0,476.7,40.5,-593.7,0,0,2562,0,5,0,
1.4267,1272.6,326.4,1374.9,-1175.7,467.1,36.6,-597.9,0,0,2568,0,6,0,
1.4300,1272.9,330.9,1383.6,-1171.2,462.9,28.2,-591.9,0,0,2574,0,7,0,
1.4333,1276.2,327.3,1380.0,-1173.9,462.0,32.1,-602.1,0,0,2580,0,8,0,
1.4367,1275.6,334.2,1380.3,-1168.5,465.6,42.6,-587.4,0,0,2586,0,9,0,
1.4400,1278.6,332.4,1387.2,-1171.8,462.6,46.2,-593.1,0,0,2592,0,10,0,
1.4433,1265.4,317.1,1380.0,-1185.3,456.0,27.3,-611.1,0,0,2598,0,11,0,
1.4467,1255.5,307.8,1386.9,-1183.8,455.1,21.3,-612.9,0,0,2604,0,12,0,
1.4500,1254.6,309.0,1377.3,-1191.3,451.5,17.1,-616.5,0,0,2610,0,13,0,
1.4533,1263.0,315.0,1374.3,-1189.8,455.7,21.0,-601.8,0,0,2616,0,14,0,
1.4567,1264.5,308.4,1366.5,-1187.4,453.3,18.3,-608.4,0,0,2622,0,15,0,
1.4600,1260.9,303.6,1363.2,-1190.1,451.5,20.4,-606.6,0,0,2628,0,16,0,
1.4633,1256.1,302.1,1374.9,-1189.8,454.8,19.2,-616.8,0,0,2634,0,17,0,
1.4667,1259.1,301.8,1371.3,-1191.6,456.9,30.0,-613.2,0,0,2640,0,18,0,
1.4700,1261.8,306.9,1377.9,-1189.5,456.3,22.8,-617.1,0,0,2646,0,19,0,
1.4733,1260.3,312.6,1391.4,-1182.6,460.2,21.3,-612.9,0,0,2652,0,20,0,
1.4767,1266.3,312.0,1382.4,-1183.5,464.7,34.5,-607.5,0,0,2658,0,21,0,
1.4800,1266.9,312.9,1385.4,-1180.5,465.0,27.3,-609.3,0,0,2664,0,22,0,
1.4833,1264.2,309.3,1386.6,-1180.8,461.7,28.2,-609.9,0,0,2670,0,23,0,
1.4867,1269.0,310.8,1381.8,-1182.3,466.5,26.4,-606.3,0,0,2676,0,24,0,
1.4900,1261.8,306.9,1374.3,-1181.4,462.0,33.6,-606.6,0,0,2682,0,25,0,
1.4933,1259.1,303.6,1379.1,-1179.3,460.8,30.6,-614.4,0,0,2688,0,26,0,
1.4967,1257.6,312.6,1380.3,-1179.0,462.6,33.6,-609.9,0,0,2694,0,27,0,
1.5000,1269.6,321.9,1392.0,-1173.3,467.4,41.1,-602.4,0,0,2700,0,28,0,
1.5033,1259.4,314.1,1386.0,-1180.8,457.8,40.2,-605.1,0,0,2706,0,29,0,
1.5067,1262.1,310.2,1376.4,-1185.6,453.0,35.7,-609.3,0,0,2712,0,30,0,
1.5100,1267.8,316.8,1384.5,-1176.6,458.7,32.1,-606.3,0,0,2718,0,31,0,
1.5133,1273.5,320.7,1385.7,-1176.3,461.1,39.9,-603.6,0,0,2724,0,32,0,
1.5167,1281.0,325.5,1388.1,-1170.0,464.1,46.8,-593.1,0,0,2730,0,33,0,
1.5200,1283.7,326.4,1387.2,-1173.0,468.0,42.9,-594.6,0,0,2736,0,34,0,
1.5233,1281.3,318.9,1392.6,-1171.5,468.6,46.5,-597.6,0,0,2742,0,35,0,
1.5267,1286.7,328.8,1404.6,-1167.0,475.8,54.3,-588.9,0,0,2748,0,36,0,
1.5300,1281.9,324.0,1400.1,-1168.2,473.7,46.8,-601.5,0,0,2754,0,37,0,
1.5333,1283.4,323.7,1404.6,-1169.7,471.9,41.1,-603.9,0,0,2760,0,38,0,
1.5367,1281.6,320.4,1396.5,-1174.8,465.3,41.4,-599.7,0,0,2766,0,39,0,
1.5400,1274.4,309.0,1390.2,-1179.3,461.7,36.3,-612.9,0,0,2772,0,40,0,
1.5433,1270.8,314.1,1391.1,-1181.4,456.3,26.4,-610.8,0,0,2778,0,41,0,
1.5467,1264.2,309.9,1388.7,-1183.8,455.7,28.2,-622.5,0,0,2784,0,42,0,
1.5500,1262.4,304.5,1379.4,-1185.3,457.2,24.0,-620.4,0,0,2790,0,43,0,
1.5533,1268.4,303.3,1386.6,-1178.4,462.3,33.3,-619.5,0,0,2796,0,44,0,
1.5567,1258.2,300.6,1376.1,-1182.3,462.3,33.6,-625.5,0,0,2802,0,45,0,
1.5600,1262.4,303.3,1376.1,-1179.3,464.4,36.3,-627.9,0,0,2808,0,46,0,
1.5633,1262.4,303.6,1375.5,-1182.9,462.0,30.3,-630.9,0,0,2814,0,47,0,
1.5667,1256.4,298.5,1373.7,-1184.1,463.2,33.9,-630.6,0,0,2820,0,48,0,
1.5700,1252.8,291.9,1374.6,-1186.5,459.6,27.3,-630.3,0,0,2826,0,49,0,
1.5733,1259.4,292.2,1373.4,-1185.3,465.6,26.4,-628.5,0,0,2832,0,50,0,
1.5767,1256.7,291.3,1372.2,-1185.3,463.5,28.8,-623.4,0,0,2838,0,51,0,
1.5800,1251.9,296.4,1380.9,-1189.5,461.1,31.5,-624.6,0,0,2844,0,52,0,
1.5833,1259.1,294.3,1377.3,-1189.2,459.9,22.5,-629.7,0,0,2850,0,53,0,
1.5867,1245.0,288.3,1372.5,-1185.9,462.3,24.3,-632.4,0,0,2856,0,54,0,
1.5900,1248.0,293.7,1368.6,-1190.7,457.5,16.5,-630.6,0,0,2862,0,55,0,
1.5933,1257.3,297.0,1382.1,-1185.6,461.1,26.4,-631.2,0,0,2868,0,56,0,
1.5967,1259.7,294.0,1373.4,-1185.9,463.5,27.6,-625.8,0,0,2874,0,57,0,
1.6000,1248.6,282.9,1367.4,-1189.5,457.5,28.5,-637.5,0,0,2880,0,58,0,
1.6033,1241.1,269.7,1350.3,-1203.3,446.1,12.0,-647.7,0,0,2886,0,59,0,
1.6067,1253.1,283.5,1359.6,-1195.2,444.9,18.6,-633.3,0,0,2892,0,60,0,
1.6100,1255.2,283.5,1362.3,-1193.7,448.8,19.8,-627.3,0,0,2898,0,61,0,
1.6133,1245.0,281.7,1368.0,-1185.3,453.9,25.2,-630.0,0,0,2904,0,62,0,
1.6167,1248.3,287.1,1356.6,-1187.4,453.3,31.8,-627.0,0,0,2910,0,63,0,
1.6200,1251.0,286.2,1365.0,-1186.5,452.1,31.2,-627.6,0,0,2916,0,64,0,
1.6233,1245.0,280.8,1358.4,-1193.1,444.9,11.7,-638.4,0,0,2922,0,65,0,
1.6267,1256.1,288.9,1366.5,-1186.5,456.9,27.6,-629.7,0,0,2928,0,66,0,
1.6300,1250.4,283.5,1359.3,-1189.2,455.1,27.0,-632.4,0,0,2934,0,67,0,
1.6333,1249.2,281.4,1363.2,-1191.0,449.1,26.1,-635.1,0,0,2940,0,68,0,
1.6367,1242.3,270.0,1356.3,-1198.8,442.2,8.1,-647.1,0,0,2946,0,69,0,
1.6400,1249.2,272.7,1355.7,-1197.3,445.5,16.5,-636.3,0,0,2952,0,70,0,
1.6433,1234.5,268.2,1343.4,-1200.6,442.8,15.6,-637.8,0,0,2958,0,71,0,
1.6467,1240.2,275.1,1351.2,-1199.1,442.8,11.1,-639.3,0,0,2964,0,72,0,
1.6500,1246.2,276.6,1362.9,-1196.1,442.2,2.1,-644.4,0,0,2970,0,73,0,
1.6533,1243.2,273.0,1358.1,-1204.5,442.8,13.8,-642.3,0,0,2976,0,74,0,
1.6567,1248.6,283.8,1364.4,-1197.6,447.0,12.0,-638.1,0,0,2982,0,75,0,
1.6600,1247.1,280.5,1355.1,-1200.0,444.6,21.0,-640.5,0,0,2988,0,76,0,
1.6633,1254.3,288.3,1357.2,-1199.4,450.0,24.3,-637.2,0,0,2994,0,77,0,
1.6667,1248.3,284.7,1351.5,-1196.7,447.0,15.3,-642.9,0,0,3000,0,78,0,
1.6700,1247.4,280.8,1356.0,-1196.4,449.4,16.5,-647.4,0,0,3006,0,79,0,
1.6733,1247.7,276.3,1356.0,-1196.1,444.9,15.9,-647.7,0,0,3012,0,80,0,
1.6767,1240.8,278.7,1358.4,-1193.7,447.0,15.3,-649.8,0,0,3018,0,81,0,
1.6800,1239.3,277.5,1366.8,-1196.4,441.0,12.9,-650.4,0,0,3024,0,82,0,
1.6833,1241.4,274.8,1367.7,-1199.7,444.0,11.1,-645.6,0,0,3030,0,83,0,
1.6867,1245.3,282.3,1367.7,-1195.8,447.3,15.0,-642.6,0,0,3036,0,84,0,
1.6900,1245.6,283.5,1360.5,-1195.5,447.3,15.0,-645.0,0,0,3042,0,85,0,
1.6933,1245.9,282.0,1361.1,-1191.9,448.8,29.1,-640.5,0,0,3048,0,86,0,
1.6967,1248.6,282.6,1361.7,-1190.4,446.4,17.1,-645.3,0,0,3054,0,87,0,
1.7000,1234.8,272.4,1365.9,-1195.2,443.1,8.7,-653.1,0,0,3060,0,88,0,
1.7033,1248.6,277.8,1367.7,-1190.4,447.0,12.9,-647.7,0,0,3066,0,89,0,
1.7067,1264.5,294.3,1369.5,-1178.1,454.5,30.9,-631.8,0,0,3072,0,90,0,
1.7100,1256.7,286.2,1372.8,-1176.9,455.4,32.4,-632.4,0,0,3078,0,91,0,
1.7133,1254.6,280.8,1377.3,-1184.1,453.6,28.2,-639.0,0,0,3084,0,92,0,
1.7167,1256.7,282.3,1378.5,-1182.0,452.1,26.7,-634.8,0,0,3090,0,93,0,
1.7200,1252.8,281.4,1373.7,-1182.9,447.3,24.6,-636.9,0,0,3096,0,94,0,
1.7233,1249.8,276.0,1367.7,-1183.8,446.1,22.2,-643.2,0,0,3102,0,95,0,
1.7267,1249.2,283.5,1365.3,-1182.9,443.7,22.2,-640.8,0,0,3108,0,96,0,
1.7300,1249.8,281.1,1362.0,-1187.1,447.3,26.7,-645.0,0,0,3114,0,97,0,
1.7333,1239.3,272.4,1364.7,-1188.3,441.0,21.0,-653.1,0,0,3120,0,98,0,
1.7367,1251.0,269.4,1361.4,-1189.5,435.6,14.1,-662.4,0,0,3126,0,99,0,
1.7400,1251.6,279.0,1357.8,-1186.8,438.9,24.0,-644.7,0,0,3132,0,100,0,
1.7433,1239.9,273.3,1362.0,-1187.7,444.9,31.5,-650.7,0,0,3138,0,101,0,
1.7467,1250.4,277.2,1373.1,-1185.9,445.5,31.2,-645.9,0,0,3144,0,102,0,
1.7500,1252.8,282.6,1385.4,-1177.2,454.5,28.2,-643.5,0,0,3150,0,103,0,
1.7533,1263.9,284.1,1375.8,-1178.7,453.0,23.1,-636.9,0,0,3156,0,104,0,
1.7567,1261.8,285.0,1383.3,-1177.2,455.7,22.2,-641.1,0,0,3162,0,105,0,
1.7600,1266.9,288.6,1387.8,-1170.0,464.4,32.4,-636.3,0,0,3168,0,106,0,
1.7633,1276.2,293.4,1399.5,-1165.8,462.6,39.3,-635.1,0,0,3174,0,107,0,
1.7667,1277.4,298.5,1396.8,-1164.0,468.3,51.6,-627.3,0,0,3180,0,108,0,
1.7700,1279.2,303.0,1402.2,-1159.2,469.2,53.7,-627.9,0,0,3186,0,109,0,
1.7733,1276.8,295.2,1401.3,-1165.8,467.7,44.1,-632.4,0,0,3192,0,110,0,
1.7767,1271.1,292.8,1392.3,-1165.2,468.9,47.4,-633.6,0,0,3198,0,111,0,
1.7800,1279.5,295.2,1394.4,-1161.6,473.7,58.5,-623.7,0,0,3204,0,112,0,
1.7833,1275.6,294.0,1391.7,-1162.5,469.8,54.0,-625.8,0,0,3210,0,113,0,
1.7867,1277.4,298.5,1395.9,-1162.5,472.5,52.5,-614.7,0,0,3216,0,114,0,
1.7900,1279.8,297.9,1401.6,-1160.1,474.0,58.2,-617.4,0,0,3222,0,115,0,
1.7933,1292.4,302.7,1399.2,-1156.2,478.5,67.8,-609.9,0,0,3228,0,116,0,
1.7967,1287.0,303.9,1399.5,-1156.5,479.4,65.4,-624.9,0,0,3234,0,117,0,
1.8000,1290.3,310.2,1409.1,-1155.0,477.9,62.1,-612.9,0,0,3240,0,118,0,
1.8033,1292.4,308.7,1410.0,-1160.4,473.1,60.6,-619.5,0,0,3246,0,119,0,
1.8067,1276.2,298.8,1403.4,-1160.1,465.3,57.6,-620.7,0,0,3252,0,120,0,
1.8100,1288.2,295.5,1406.7,-1164.6,462.3,59.1,-630.0,0,0,3258,0,121,0,
1.8133,1281.9,302.7,1401.6,-1159.5,467.4,63.6,-624.0,0,0,3264,0,122,0,
1.8167,1298.1,304.2,1400.4,-1161.9,463.5,58.2,-627.6,0,0,3270,0,123,0,
1.8200,1284.3,297.3,1399.8,-1160.7,464.1,45.3,-626.7,0,0,3276,0,124,0,
1.8233,1282.8,303.6,1406.1,-1156.5,470.4,47.4,-626.7,0,0,3282,0,125,0,
1.8267,1301.1,317.4,1402.8,-1155.0,471.6,58.8,-606.9,0,0,3288,0,126,0,
1.8300,1299.6,305.1,1413.0,-1152.0,473.1,64.8,-608.4,0,0,3294,0,127,0,
1.8333,1289.7,293.7,1410.0,-1160.1,469.8,62.1,-612.6,0,0,3300,0,128,0,
1.8367,1285.2,284.7,1399.2,-1170.0,456.3,52.5,-628.5,0,0,3306,0,129,0,
1.8400,1288.2,282.9,1400.1,-1170.6,453.6,51.9,-629.4,0,0,3312,0,130,0,
1.8433,1276.2,280.5,1389.3,-1179.9,449.7,45.0,-645.0,0,0,3318,0,131,0,
1.8467,1272.3,278.4,1386.0,-1187.1,442.8,42.0,-647.1,0,0,3324,0,132,0,
1.8500,1268.4,283.2,1391.7,-1185.9,447.0,49.5,-644.1,0,0,3330,0,133,0,
1.8533,1273.2,279.0,1392.3,-1179.3,450.6,44.1,-649.8,0,0,3336,0,134,0,
1.8567,1278.6,278.1,1390.8,-1168.8,452.4,41.7,-644.1,0,0,3342,0,135,0,
1.8600,1271.1,280.5,1394.7,-1169.7,453.9,48.6,-634.8,0,0,3348,0,136,0,
1.8633,1276.8,288.3,1404.0,-1169.1,461.7,54.3,-624.6,0,0,3354,0,137,0,
1.8667,1288.5,292.2,1407.9,-1166.7,465.6,56.1,-618.3,0,0,3360,0,138,0,
1.8700,1297.2,297.6,1411.2,-1159.8,472.5,66.6,-611.1,0,0,3366,0,139,0,
1.8733,1294.2,290.4,1409.7,-1160.4,471.3,67.8,-611.1,0,0,3372,0,140,0,
1.8767,1286.4,288.0,1410.3,-1163.4,466.8,60.9,-611.4,0,0,3378,0,141,0,
1.8800,1290.3,280.2,1410.0,-1159.8,468.9,65.1,-617.1,0,0,3384,0,142,0,
1.8833,1295.7,279.3,1411.8,-1161.9,468.3,65.1,-612.9,0,0,3390,0,143,0,
1.8867,1286.7,282.3,1405.2,-1161.9,466.2,69.9,-618.9,0,0,3396,0,144,0,
1.8900,1281.0,279.6,1397.1,-1163.4,461.7,61.2,-623.4,0,0,3402,0,145,0,
1.8933,1278.9,277.5,1407.6,-1162.5,459.3,55.8,-627.0,0,0,3408,0,146,0,
1.8967,1284.9,282.0,1397.7,-1164.0,458.1,51.9,-625.2,0,0,3414,0,147,0,
1.9000,1275.9,276.6,1402.5,-1166.4,453.9,57.9,-624.9,0,0,3420,0,148,0,
1.9033,1277.4,275.4,1404.9,-1167.9,454.5,55.2,-629.1,0,0,3426,0,149,0,
1.9067,1276.5,273.0,1405.8,-1165.2,457.8,57.0,-627.3,0,0,3432,0,150,0,
1.9100,1281.3,285.0,1403.4,-1164.0,459.9,58.5,-619.8,0,0,3438,0,151,0,
1.9133,1280.1,269.7,1395.0,-1167.0,453.6,39.9,-636.6,0,0,3444,0,152,0,
1.9167,1272.3,272.7,1392.9,-1166.4,456.6,52.2,-638.1,0,0,3450,0,153,0,
1.9200,1273.2,273.0,1395.6,-1167.3,460.8,48.6,-641.7,0,0,3456,0,154,0,
1.9233,1280.4,272.7,1389.3,-1170.3,459.6,46.5,-634.5,0,0,3462,0,155,0,
1.9267,1281.6,276.9,1395.9,-1162.2,463.2,48.9,-632.1,0,0,3468,0,156,0,
1.9300,1278.3,268.8,1389.6,-1168.2,463.5,51.0,-627.9,0,0,3474,0,157,0,
1.9333,1276.8,271.8,1392.0,-1170.0,459.0,44.4,-633.9,0,0,3480,0,158,0,
1.9367,1269.6,267.0,1380.6,-1175.1,455.7,44.4,-648.0,0,0,3486,0,159,0,
1.9400,1269.9,267.0,1379.1,-1170.3,453.9,40.5,-635.4,0,0,3492,0,160,0,
1.9433,1264.8,255.9,1376.1,-1173.9,446.1,42.3,-645.0,0,0,3498,0,161,0,
1.9467,1278.9,271.5,1390.5,-1171.2,450.9,48.9,-632.7,0,0,3504,0,162,0,
1.9500,1269.6,271.5,1388.7,-1177.5,446.4,44.7,-636.3,0,0,3510,0,163,0,
1.9533,1257.3,256.2,1371.9,-1184.7,437.7,32.4,-651.0,0,0,3516,0,164,0,
1.9567,1254.9,253.8,1371.0,-1187.1,435.0,37.2,-647.7,0,0,3522,0,165,0,
1.9600,1255.8,253.5,1369.2,-1183.5,440.7,48.9,-651.3,0,0,3528,0,166,0,
1.9633,1258.2,258.6,1371.3,-1185.3,439.8,44.1,-648.3,0,0,3534,0,167,0,
1.9667,1255.8,256.2,1370.1,-1181.7,436.5,33.3,-648.0,0,0,3540,0,168,0,
1.9700,1264.2,257.7,1377.3,-1179.9,436.8,33.9,-644.1,0,0,3546,0,169,0,
1.9733,1270.2,255.6,1379.4,-1174.8,438.3,36.3,-637.5,0,0,3552,0,170,0,
1.9767,1266.9,251.1,1374.0,-1185.3,432.9,37.2,-640.5,0,0,3558,0,171,0,
1.9800,1259.1,254.4,1378.2,-1182.3,428.7,36.6,-641.7,0,0,3564,0,172,0,
1.9833,1260.6,251.7,1373.1,-1188.0,422.4,35.1,-643.5,0,0,3570,0,173,0,
1.9867,1271.7,255.9,1372.8,-1184.4,432.0,39.6,-648.3,0,0,3576,0,174,0,
1.9900,1276.2,257.7,1376.4,-1180.5,431.1,35.4,-642.3,0,0,3582,0,175,0,
1.9933,1274.7,263.1,1366.5,-1186.8,429.3,34.8,-638.1,0,0,3588,0,176,0,
1.9967,1271.7,260.4,1377.3,-1185.9,434.7,49.2,-640.2,0,0,3594,0,177,0,
2.0000,1262.4,245.7,1368.9,-1190.7,429.3,48.0,-637.8,0,0,3600,0,178,0,
2.0033,1263.3,252.9,1380.6,-1188.6,430.5,49.5,-632.7,0,0,3606,0,179,0,
2.0067,1272.3,260.1,1388.4,-1177.5,440.4,53.7,-630.0,0,0,3612,0,180,0,
2.0100,1277.4,260.7,1386.6,-1179.0,440.4,60.3,-622.5,0,0,3618,0,181,0,
2.0133,1260.0,253.8,1388.4,-1182.9,433.5,48.9,-630.3,0,0,3624,0,182,0,
2.0167,1261.2,249.3,1372.2,-1187.7,430.5,47.4,-639.0,0,0,3630,0,183,0,
2.0200,1264.5,250.8,1382.1,-1182.6,433.8,51.6,-633.6,0,0,3636,0,184,0,
2.0233,1271.7,261.6,1388.7,-1175.1,439.8,55.8,-621.6,0,0,3642,0,185,0,
2.0267,1277.4,266.1,1403.7,-1168.5,450.6,63.0,-613.8,0,0,3648,0,186,0,
2.0300,1277.7,265.5,1395.9,-1166.1,450.9,67.2,-612.6,0,0,3654,0,187,0,
2.0333,1274.1,258.3,1393.2,-1174.2,442.5,66.0,-625.5,0,0,3660,0,188,0,
2.0367,1267.5,252.3,1384.2,-1178.7,435.6,58.5,-626.1,0,0,3666,0,189,0,
2.0400,1266.6,248.4,1382.7,-1176.3,440.1,55.8,-625.8,0,0,3672,0,190,0,
2.0433,1269.3,252.0,1390.5,-1174.8,442.5,60.3,-621.9,0,0,3678,0,191,0,
2.0467,1271.7,255.6,1389.9,-1170.9,438.6,54.9,-623.1,0,0,3684,0,192,0,
2.0500,1266.9,251.4,1383.9,-1172.4,440.4,54.6,-627.0,0,0,3690,0,193,0,
2.0533,1268.7,250.8,1385.4,-1171.2,442.5,48.3,-622.5,0,0,3696,0,194,0,
2.0567,1264.8,247.8,1382.7,-1172.1,447.6,55.8,-621.9,0,0,3702,0,195,0,
2.0600,1276.5,256.2,1390.8,-1167.3,451.5,59.1,-616.5,0,0,3708,0,196,0,
2.0633,1265.7,254.7,1392.9,-1161.9,447.3,68.4,-616.8,0,0,3714,0,197,0,
2.0667,1262.7,252.0,1386.6,-1165.5,445.5,61.5,-625.8,0,0,3720,0,198,0,
2.0700,1263.9,248.4,1380.9,-1165.8,447.0,58.2,-622.5,0,0,3726,0,199,0,
2.0733,1268.7,244.2,1377.6,-1165.5,442.8,64.2,-627.9,0,0,3732,0,200,0,
2.0767,1275.3,254.4,1382.7,-1156.5,449.4,70.5,-625.5,0,0,3738,0,201,0,
2.0800,1275.0,250.8,1389.9,-1157.1,454.8,73.5,-615.9,0,0,3744,0,202,0,
2.0833,1280.7,255.9,1392.9,-1149.9,459.3,75.6,-615.3,0,0,3750,0,203,0,
2.0867,1278.6,251.7,1385.7,-1152.9,459.0,65.4,-621.6,0,0,3756,0,204,0,
2.0900,1276.5,252.3,1379.1,-1161.0,456.6,61.5,-628.5,0,0,3762,0,205,0,
2.0933,1284.3,252.3,1388.1,-1158.3,459.3,65.7,-621.6,0,0,3768,0,206,0,
2.0967,1285.2,255.6,1384.2,-1153.5,461.4,71.1,-615.9,0,0,3774,0,207,0,
2.1000,1288.2,262.5,1405.8,-1146.0,463.2,79.5,-611.1,0,0,3780,0,208,0,
2.1033,1292.4,261.9,1404.0,-1147.5,464.1,77.1,-610.5,0,0,3786,0,209,0,
2.1067,1288.2,256.2,1390.5,-1149.3,460.5,66.0,-609.6,0,0,3792,0,210,0,
2.1100,1289.4,249.0,1390.8,-1148.4,459.9,70.5,-608.7,0,0,3798,0,211,0,
2.1133,1285.8,244.8,1396.2,-1146.6,465.6,77.1,-614.7,0,0,3804,0,212,0,
2.1167,1292.1,262.5,1415.7,-1139.1,472.2,79.8,-604.5,0,0,3810,0,213,0,
2.1200,1305.6,271.5,1422.9,-1133.1,472.2,90.3,-597.3,0,0,3816,0,214,0,
2.1233,1311.3,277.2,1422.6,-1125.6,482.4,90.3,-597.3,0,0,3822,0,215,0,
2.1267,1316.7,282.0,1428.3,-1119.0,486.9,100.5,-589.8,0,0,3828,0,216,0,
2.1300,1317.6,281.4,1433.4,-1115.1,489.0,102.6,-591.0,0,0,3834,0,217,0,
2.1333,1318.8,283.5,1432.8,-1119.9,484.2,99.6,-588.9,0,0,3840,0,218,0,
2.1367,1313.1,286.2,1425.6,-1116.9,485.1,99.0,-597.9,0,0,3846,0,219,0,
2.1400,1326.9,290.1,1437.6,-1111.5,486.6,104.4,-596.1,0,0,3852,0,220,0,
2.1433,1325.7,287.7,1439.7,-1107.9,496.8,114.6,-582.9,0,0,3858,0,221,0,
2.1467,1341.9,295.2,1440.0,-1109.1,494.1,119.4,-574.8,0,0,3864,0,222,0,
2.1500,1334.1,305.7,1438.8,-1104.6,493.2,114.3,-575.7,0,0,3870,0,223,0,
2.1533,1337.1,302.4,1429.2,-1107.0,492.0,112.8,-580.5,0,0,3876,0,224,0,
2.1567,1335.9,300.3,1436.4,-1105.8,490.8,116.1,-582.9,0,0,3882,0,225,0,
2.1600,1341.0,298.5,1434.3,-1107.6,488.4,108.9,-586.2,0,0,3888,0,226,0,
2.1633,1327.2,294.3,1436.7,-1106.7,488.7,102.9,-594.0,0,0,3894,0,227,0,
2.1667,1336.8,291.0,1437.0,-1104.6,492.0,105.0,-601.5,0,0,3900,0,228,0,
2.1700,1337.1,305.1,1433.7,-1106.1,492.3,114.6,-585.6,0,0,3906,0,229,0,
2.1733,1341.9,303.0,1434.9,-1106.4,496.5,125.4,-585.6,0,0,3912,0,230,0,
2.1767,1339.5,300.9,1439.4,-1105.5,495.9,117.0,-585.6,0,0,3918,0,231,0,
2.1800,1326.6,286.8,1438.8,-1110.6,489.0,102.6,-593.1,0,0,3924,0,232,0,
2.1833,1326.6,285.3,1439.1,-1111.8,490.2,113.4,-593.1,0,0,3930,0,233,0,
2.1867,1329.3,291.0,1437.0,-1110.3,489.3,110.7,-595.2,0,0,3936,0,234,0,
2.1900,1328.4,285.9,1436.7,-1109.7,490.5,107.4,-594.3,0,0,3942,0,235,0,
2.1933,1325.7,290.1,1436.7,-1106.1,492.0,112.8,-586.2,0,0,3948,0,236,0,
2.1967,1324.2,295.2,1436.7,-1105.5,495.0,115.5,-581.7,0,0,3954,0,237,0,
2.2000,1329.6,293.1,1442.1,-1104.6,497.7,114.3,-580.8,0,0,3960,0,238,0,
2.2033,1323.3,287.4,1447.8,-1099.8,495.0,112.8,-584.7,0,0,3966,0,239,0,
2.2067,1335.9,286.2,1433.7,-1099.8,495.0,115.2,-576.6,0,0,3972,0,240,0,
2.2100,1330.2,290.7,1423.2,-1105.5,488.7,117.9,-580.8,0,0,3978,0,241,0,
2.2133,1334.7,293.1,1429.8,-1105.8,490.8,113.1,-585.9,0,0,3984,0,242,0,
2.2167,1336.5,293.4,1438.5,-1098.9,493.5,120.6,-588.0,0,0,3990,0,243,0,
2.2200,1322.1,275.4,1435.8,-1106.4,489.3,105.6,-597.6,0,0,3996,0,244,0,
2.2233,1322.7,272.7,1431.0,-1110.0,487.2,108.0,-601.8,0,0,4002,0,245,0,
2.2267,1325.4,274.5,1426.5,-1113.0,484.5,95.4,-600.9,0,0,4008,0,246,0,
2.2300,1324.8,274.5,1436.4,-1110.6,478.5,108.6,-596.4,0,0,4014,0,247,0,
2.2333,1315.8,270.6,1433.4,-1112.7,473.7,101.1,-600.6,0,0,4020,0,248,0,
2.2367,1321.8,269.7,1432.8,-1115.7,475.8,97.8,-601.2,0,0,4026,0,249,0,
2.2400,1321.2,273.0,1437.6,-1117.5,468.9,96.3,-605.1,0,0,4032,0,250,0,
2.2433,1317.9,275.1,1436.7,-1118.1,471.0,100.2,-595.8,0,0,4038,0,251,0,
2.2467,1327.5,284.4,1435.5,-1113.6,473.1,107.4,-588.3,0,0,4044,0,252,0,
2.2500,1328.1,284.7,1434.3,-1112.7,477.3,110.1,-587.7,0,0,4050,0,253,0,
2.2533,1331.1,285.0,1440.9,-1111.8,477.9,113.1,-594.3,0,0,4056,0,254,0,
2.2567,1334.1,278.4,1439.1,-1108.5,474.9,112.2,-589.2,0,0,4062,0,255,0,
2.2600,1341.3,285.3,1444.8,-1106.4,480.3,119.4,-583.8,0,0,4068,0,0,0,
2.2633,1332.9,279.0,1441.8,-1104.0,478.2,120.6,-584.4,0,0,4074,0,1,0,
2.2667,1337.4,279.6,1429.2,-1106.7,475.5,119.7,-579.0,0,0,4080,0,2,0,
2.2700,1331.4,274.5,1424.7,-1110.6,478.5,116.1,-581.4,0,0,4086,0,3,0,
2.2733,1334.1,273.6,1429.5,-1105.8,476.1,110.4,-582.3,0,0,4092,0,4,0,
2.2767,1337.1,276.0,1430.4,-1104.6,483.3,123.9,-587.1,0,0,4098,0,5,0,
2.2800,1339.8,277.2,1435.8,-1101.9,490.8,121.8,-584.1,0,0,4104,0,6,0,
2.2833,1344.6,279.6,1454.4,-1096.5,492.0,129.3,-583.5,0,0,4110,0,7,0,
2.2867,1351.5,286.5,1446.9,-1097.1,496.2,135.0,-578.7,0,0,4116,0,8,0,
2.2900,1356.6,296.4,1448.7,-1087.5,497.1,138.9,-571.8,0,0,4122,0,9,0,
2.2933,1350.6,293.4,1449.3,-1086.6,501.6,138.9,-567.6,0,0,4128,0,10,0,
2.2967,1354.2,293.4,1458.0,-1081.2,504.9,139.8,-570.3,0,0,4134,0,11,0,
2.3000,1362.6,297.9,1463.7,-1081.8,503.1,138.0,-572.4,0,0,4140,0,12,0,
2.3033,1369.2,300.3,1466.4,-1081.2,503.7,140.1,-563.7,0,0,4146,0,13,0,
2.3067,1361.4,303.0,1462.5,-1078.2,504.3,140.7,-567.9,0,0,4152,0,14,0,
2.3100,1368.6,306.3,1467.3,-1078.5,512.4,146.4,-567.9,0,0,4158,0,15,0,
2.3133,1368.6,305.7,1483.2,-1074.6,517.2,152.7,-553.8,0,0,4164,0,16,0,
2.3167,1378.2,311.4,1481.7,-1071.3,521.1,156.6,-553.5,0,0,4170,0,17,0,
2.3200,1380.6,316.2,1470.0,-1069.5,523.2,147.9,-559.8,0,0,4176,0,18,0,
2.3233,1380.9,328.8,1482.3,-1067.1,518.7,151.8,-555.6,0,0,4182,0,19,0,
2.3267,1383.6,319.5,1476.0,-1069.2,522.9,160.5,-552.6,0,0,4188,0,20,0,
2.3300,1375.5,311.4,1475.7,-1075.2,511.8,147.3,-560.4,0,0,4194,0,21,0,
2.3333,1363.2,306.0,1461.6,-1082.4,504.6,144.6,-568.2,0,0,4200,0,22,0,
2.3367,1370.7,315.0,1463.4,-1077.6,506.1,153.6,-560.4,0,0,4206,0,23,0,
2.3400,1368.9,309.9,1464.3,-1081.8,506.7,149.4,-566.7,0,0,4212,0,24,0,
2.3433,1359.6,306.6,1465.8,-1079.7,503.7,138.3,-570.3,0,0,4218,0,25,0,
2.3467,1359.3,298.5,1465.2,-1080.6,499.2,136.2,-567.9,0,0,4224,0,26,0,
2.3500,1366.5,307.2,1461.3,-1085.7,498.9,133.8,-570.0,0,0,4230,0,27,0,
2.3533,1356.3,297.3,1456.2,-1091.7,493.8,129.3,-576.0,0,0,4236,0,28,0,
2.3567,1352.4,293.1,1443.3,-1092.3,488.7,127.2,-583.2,0,0,4242,0,29,0,
2.3600,1351.8,295.5,1445.7,-1093.5,488.1,130.2,-579.3,0,0,4248,0,30,0,
2.3633,1347.9,301.8,1453.8,-1093.2,488.4,125.1,-589.5,0,0,4254,0,31,0,
2.3667,1348.8,297.0,1440.0,-1099.5,484.5,126.0,-585.3,0,0,4260,0,32,0,
2.3700,1347.3,288.0,1450.2,-1095.6,485.1,116.4,-591.9,0,0,4266,0,33,0,
2.3733,1334.1,274.5,1440.6,-1105.5,482.1,113.7,-602.1,0,0,4272,0,34,0,
2.3767,1335.9,273.9,1438.8,-1104.0,477.6,111.9,-599.1,0,0,4278,0,35,0,
2.3800,1347.6,285.0,1443.9,-1096.8,481.5,124.5,-583.2,0,0,4284,0,36,0,
2.3833,1339.8,274.8,1443.0,-1103.7,472.8,119.7,-590.4,0,0,4290,0,37,0,
2.3867,1338.3,272.7,1434.6,-1107.0,464.1,115.8,-596.7,0,0,4296,0,38,0,
2.3900,1334.7,267.0,1431.3,-1112.4,465.0,119.4,-603.0,0,0,4302,0,39,0,
2.3933,1343.1,282.6,1440.0,-1107.9,467.1,118.5,-592.8,0,0,4308,0,40,0,
2.3967,1346.7,286.5,1433.7,-1105.2,473.7,122.4,-588.0,0,0,4314,0,41,0,
2.4000,1344.0,284.1,1442.4,-1099.8,477.6,125.1,-591.3,0,0,4320,0,42,0,
2.4033,1347.3,286.8,1445.1,-1103.1,471.6,117.0,-597.9,0,0,4326,0,43,0,
2.4067,1347.6,286.8,1445.7,-1107.6,466.8,113.1,-598.2,0,0,4332,0,44,0,
2.4100,1342.2,285.0,1450.5,-1112.4,465.3,110.4,-595.8,0,0,4338,0,45,0,
2.4133,1342.2,277.5,1437.6,-1116.0,462.9,116.1,-599.1,0,0,4344,0,46,0,
2.4167,1344.9,283.8,1453.2,-1107.9,468.0,127.5,-583.8,0,0,4350,0,47,0,
2.4200,1346.1,282.9,1443.3,-1110.0,467.1,115.8,-593.4,0,0,4356,0,48,0,
2.4233,1340.4,269.1,1431.3,-1114.8,462.3,103.5,-604.2,0,0,4362,0,49,0,
2.4267,1342.2,273.9,1436.1,-1109.4,457.8,105.3,-600.6,0,0,4368,0,50,0,
2.4300,1345.5,284.1,1443.9,-1107.0,464.4,113.4,-594.6,0,0,4374,0,51,0,
2.4333,1332.3,275.7,1441.8,-1111.8,458.7,104.7,-613.8,0,0,4380,0,52,0,
2.4367,1332.0,275.1,1441.8,-1113.0,458.4,100.8,-612.0,0,0,4386,0,53,0,
2.4400,1329.9,273.0,1437.3,-1111.5,459.6,102.6,-615.6,0,0,4392,0,54,0,
2.4433,1324.8,266.7,1445.1,-1116.0,453.3,99.0,-608.7,0,0,4398,0,55,0,
2.4467,1327.8,263.7,1440.6,-1113.6,454.5,106.2,-618.6,0,0,4404,0,56,0,
2.4500,1327.2,265.5,1431.0,-1118.4,452.1,105.9,-610.8,0,0,4410,0,57,0,
2.4533,1323.0,261.0,1426.8,-1122.0,448.5,99.6,-616.8,0,0,4416,0,58,0,
2.4567,1321.8,255.6,1425.9,-1122.6,441.9,95.1,-614.7,0,0,4422,0,59,0,
2.4600,1326.0,256.2,1418.1,-1128.0,445.2,95.4,-618.0,0,0,4428,0,60,0,
2.4633,1330.2,260.4,1425.3,-1124.1,444.3,93.9,-617.7,0,0,4434,0,61,0,
2.4667,1339.5,273.3,1429.5,-1124.1,448.5,102.3,-612.9,0,0,4440,0,62,0,
2.4700,1332.0,264.6,1432.2,-1122.0,449.7,101.1,-619.8,0,0,4446,0,63,0,
2.4733,1333.5,263.1,1431.3,-1119.9,451.2,102.9,-619.5,0,0,4452,0,64,0,
2.4767,1330.8,263.1,1437.9,-1114.5,449.4,99.9,-620.7,0,0,4458,0,65,0,
2.4800,1331.1,261.9,1434.9,-1116.9,455.7,106.5,-620.4,0,0,4464,0,66,0,
2.4833,1335.0,260.7,1430.7,-1117.2,449.4,100.5,-619.2,0,0,4470,0,67,0,
2.4867,1338.0,256.8,1431.3,-1119.0,453.9,108.3,-616.8,0,0,4476,0,68,0,
2.4900,1332.6,256.5,1422.0,-1118.7,455.4,111.0,-623.1,0,0,4482,0,69,0,
2.4933,1323.9,251.4,1419.9,-1122.3,446.7,110.4,-622.2,0,0,4488,0,70,0,
2.4967,1317.0,254.7,1423.8,-1124.4,439.5,102.6,-628.2,0,0,4494,0,71,0,
2.5000,1313.7,238.2,1409.7,-1127.4,439.2,88.2,-633.9,0,0,4500,0,72,0,
2.5033,1312.8,246.0,1420.5,-1127.4,436.8,91.2,-630.3,0,0,4506,0,73,0,
2.5067,1323.0,247.8,1418.1,-1123.8,439.2,94.8,-624.9,0,0,4512,0,74,0,
2.5100,1320.0,248.1,1420.8,-1130.1,440.4,97.5,-621.6,0,0,4518,0,75,0,
2.5133,1319.7,245.1,1419.0,-1126.8,440.1,95.7,-623.7,0,0,4524,0,76,0,
2.5167,1323.9,248.7,1422.3,-1126.2,436.8,95.7,-620.1,0,0,4530,0,77,0,
2.5200,1317.9,243.3,1422.6,-1126.2,430.8,90.3,-626.7,0,0,4536,0,78,0,
2.5233,1315.2,242.1,1413.0,-1131.6,428.4,91.2,-630.0,0,0,4542,0,79,0,
2.5267,1314.9,240.3,1413.0,-1131.0,428.7,92.4,-624.9,0,0,4548,0,80,0,
2.5300,1319.4,239.4,1419.9,-1129.2,433.8,96.6,-624.3,0,0,4554,0,81,0,
2.5333,1311.3,237.0,1418.1,-1129.2,426.0,91.2,-630.3,0,0,4560,0,82,0,
2.5367,1313.4,233.4,1422.6,-1132.2,429.3,94.8,-630.0,0,0,4566,0,83,0,
2.5400,1315.2,232.5,1417.2,-1131.3,425.7,81.9,-627.9,0,0,4572,0,84,0,
2.5433,1301.4,228.0,1420.5,-1131.6,432.0,89.1,-619.5,0,0,4578,0,85,0,
2.5467,1322.7,244.8,1434.6,-1123.5,443.1,99.9,-612.0,0,0,4584,0,86,0,
2.5500,1336.2,259.2,1444.2,-1117.5,440.1,115.5,-605.7,0,0,4590,0,87,0,
2.5533,1335.9,255.6,1451.7,-1116.0,442.5,118.5,-608.7,0,0,4596,0,88,0,
2.5567,1339.5,253.5,1446.6,-1112.7,443.1,119.1,-611.4,0,0,4602,0,89,0,
2.5600,1328.1,247.2,1435.8,-1118.7,440.7,106.5,-617.1,0,0,4608,0,90,0,
2.5633,1325.7,242.7,1437.0,-1117.8,444.9,105.3,-621.0,0,0,4614,0,91,0,
2.5667,1321.8,239.4,1431.3,-1118.7,443.4,104.4,-625.5,0,0,4620,0,92,0,
2.5700,1326.3,247.5,1438.2,-1114.2,446.4,106.8,-622.2,0,0,4626,0,93,0,
2.5733,1320.6,250.2,1434.6,-1116.9,441.6,112.5,-618.6,0,0,4632,0,94,0,
2.5767,1329.3,251.4,1438.2,-1112.1,442.5,115.8,-607.8,0,0,4638,0,95,0,
2.5800,1326.9,251.4,1443.9,-1110.6,439.2,115.8,-611.4,0,0,4644,0,96,0,
2.5833,1323.9,246.9,1426.2,-1117.2,440.1,99.0,-621.3,0,0,4650,0,97,0,
2.5867,1309.2,232.8,1417.2,-1125.3,433.2,98.1,-627.3,0,0,4656,0,98,0,
2.5900,1314.6,232.5,1417.2,-1125.3,429.9,88.2,-628.2,0,0,4662,0,99,0,
2.5933,1312.2,243.3,1427.1,-1117.5,432.6,99.6,-628.5,0,0,4668,0,100,0,
2.5967,1319.1,240.9,1429.5,-1116.9,437.7,100.2,-629.7,0,0,4674,0,101,0,
2.6000,1327.8,250.5,1440.0,-1110.0,442.8,107.1,-616.8,0,0,4680,0,102,0,
2.6033,1335.9,261.0,1434.3,-1105.2,450.6,115.5,-605.1,0,0,4686,0,103,0,
2.6067,1328.1,249.6,1430.7,-1110.9,440.4,111.6,-606.6,0,0,4692,0,104,0,
2.6100,1321.2,243.6,1422.6,-1115.4,440.4,100.8,-609.9,0,0,4698,0,105,0,
2.6133,1316.7,247.2,1431.0,-1121.7,436.8,95.4,-615.9,0,0,4704,0,106,0,
2.6167,1325.1,247.8,1429.8,-1112.1,437.1,98.1,-617.7,0,0,4710,0,107,0,
2.6200,1322.7,250.5,1438.8,-1110.0,436.8,100.2,-612.6,0,0,4716,0,108,0,
2.6233,1332.0,249.6,1425.0,-1107.9,446.4,109.2,-611.1,0,0,4722,0,109,0,
2.6267,1335.3,254.1,1434.6,-1106.7,445.2,117.0,-598.2,0,0,4728,0,110,0,
2.6300,1341.0,254.7,1434.0,-1103.7,448.2,113.7,-594.0,0,0,4734,0,111,0,
2.6333,1331.7,261.6,1436.4,-1106.1,445.2,108.0,-605.1,0,0,4740,0,112,0,
2.6367,1330.8,265.2,1436.4,-1104.3,449.7,111.9,-600.6,0,0,4746,0,113,0,
2.6400,1334.7,258.9,1431.6,-1109.1,448.2,106.5,-606.3,0,0,4752,0,114,0,
2.6433,1336.5,261.3,1438.5,-1104.9,454.5,114.0,-597.9,0,0,4758,0,115,0,
2.6467,1345.5,268.8,1444.8,-1096.2,459.0,120.0,-594.9,0,0,4764,0,116,0,
2.6500,1343.4,270.6,1443.6,-1100.1,457.5,121.5,-588.3,0,0,4770,0,117,0,
2.6533,1344.0,267.3,1439.4,-1093.5,456.6,124.2,-584.7,0,0,4776,0,118,0,
2.6567,1342.2,261.3,1447.2,-1095.9,455.1,121.8,-593.7,0,0,4782,0,119,0,
2.6600,1348.5,263.1,1440.6,-1090.2,456.9,120.6,-595.5,0,0,4788,0,120,0,
2.6633,1348.2,265.2,1451.4,-1087.8,461.4,125.4,-588.3,0,0,4794,0,121,0,
2.6667,1343.4,263.7,1438.5,-1091.1,459.3,128.1,-587.1,0,0,4800,0,122,0,
2.6700,1348.5,270.6,1444.8,-1088.4,462.6,129.6,-585.6,0,0,4806,0,123,0,
2.6733,1344.9,267.0,1448.4,-1089.3,465.9,129.3,-585.9,0,0,4812,0,124,0,
2.6767,1339.5,256.2,1444.8,-1100.1,457.5,123.9,-602.4,0,0,4818,0,125,0,
2.6800,1336.8,253.2,1436.7,-1101.6,456.6,114.3,-603.0,0,0,4824,0,126,0,
2.6833,1341.6,259.8,1444.5,-1097.1,458.7,117.3,-601.8,0,0,4830,0,127,0,
2.6867,1332.6,251.4,1449.3,-1100.4,454.8,111.3,-605.1,0,0,4836,0,128,0,
2.6900,1338.9,255.9,1458.0,-1096.5,454.2,118.5,-601.8,0,0,4842,0,129,0,
2.6933,1348.2,259.8,1442.7,-1096.2,453.3,115.8,-598.8,0,0,4848,0,130,0,
2.6967,1339.5,269.4,1449.6,-1093.8,464.4,126.0,-598.2,0,0,4854,0,131,0,
2.7000,1353.9,264.3,1452.3,-1089.9,461.4,125.4,-593.4,0,0,4860,0,132,0,
2.7033,1348.2,259.5,1453.5,-1092.3,460.5,135.6,-597.6,0,0,4866,0,133,0,
2.7067,1348.5,262.5,1452.0,-1092.6,461.1,138.9,-590.4,0,0,4872,0,134,0,
2.7100,1344.9,260.4,1453.2,-1092.3,466.8,128.1,-596.1,0,0,4878,0,135,0,
2.7133,1343.4,260.7,1451.7,-1088.7,462.6,122.7,-599.1,0,0,4884,0,136,0,
2.7167,1343.1,258.9,1454.4,-1093.8,462.6,129.9,-598.8,0,0,4890,0,137,0,
2.7200,1348.8,259.5,1449.3,-1093.2,456.0,133.8,-590.4,0,0,4896,0,138,0,
2.7233,1360.2,266.4,1465.5,-1084.5,461.7,133.8,-586.5,0,0,4902,0,139,0,
2.7267,1361.1,265.8,1456.5,-1080.9,469.2,137.1,-581.1,0,0,4908,0,140,0,
2.7300,1351.5,263.7,1459.5,-1081.2,466.5,135.9,-583.2,0,0,4914,0,141,0,
2.7333,1352.7,268.8,1459.2,-1088.1,460.8,128.4,-589.5,0,0,4920,0,142,0,
2.7367,1362.3,272.7,1453.2,-1083.0,465.6,138.3,-582.9,0,0,4926,0,143,0,
2.7400,1359.9,270.3,1453.8,-1078.5,464.4,136.2,-588.9,0,0,4932,0,144,0,
2.7433,1355.7,264.6,1440.9,-1084.2,464.4,136.5,-591.3,0,0,4938,0,145,0,
2.7467,1342.8,252.6,1431.9,-1092.9,451.2,129.3,-605.7,0,0,4944,0,146,0,
2.7500,1341.6,253.5,1441.2,-1089.9,459.3,128.1,-594.3,0,0,4950,0,147,0,
2.7533,1332.6,242.7,1429.5,-1097.7,459.0,121.2,-598.2,0,0,4956,0,148,0,
2.7567,1343.4,247.5,1428.9,-1090.5,457.2,122.4,-591.0,0,0,4962,0,149,0,
2.7600,1349.4,258.3,1446.9,-1083.6,457.2,136.8,-578.4,0,0,4968,0,150,0,
2.7633,1362.6,256.8,1445.4,-1079.1,468.0,149.1,-572.7,0,0,4974,0,151,0,
2.7667,1354.2,255.3,1454.1,-1077.9,473.4,153.6,-570.6,0,0,4980,0,152,0,
2.7700,1367.7,266.1,1464.0,-1072.8,477.3,156.0,-567.6,0,0,4986,0,153,0,
2.7733,1378.8,276.6,1469.4,-1067.1,483.3,160.8,-562.8,0,0,4992,0,154,0,
2.7767,1378.2,277.2,1473.3,-1068.9,487.8,167.1,-552.6,0,0,4998,0,155,0,
2.7800,1375.8,278.4,1471.5,-1066.5,492.0,165.9,-553.2,0,0,5004,0,156,0,
2.7833,1384.8,277.8,1475.1,-1058.4,498.3,174.3,-548.1,0,0,5010,0,157,0,
2.7867,1380.9,283.5,1477.8,-1054.8,500.1,175.2,-548.4,0,0,5016,0,158,0,
2.7900,1386.0,290.1,1478.7,-1055.1,499.2,174.6,-544.5,0,0,5022,0,159,0,
2.7933,1386.9,288.9,1482.3,-1053.3,496.2,162.3,-551.7,0,0,5028,0,160,0,
2.7967,1377.3,271.8,1469.4,-1062.0,488.1,153.9,-564.6,0,0,5034,0,161,0,
2.8000,1375.5,264.9,1473.9,-1070.1,483.6,148.2,-568.2,0,0,5040,0,162,0,
2.8033,1380.9,267.6,1476.3,-1062.6,485.4,156.6,-559.2,0,0,5046,0,163,0,
2.8067,1380.0,268.5,1468.2,-1059.9,488.7,163.2,-560.4,0,0,5052,0,164,0,
2.8100,1373.4,262.2,1472.1,-1056.9,492.9,157.8,-565.8,0,0,5058,0,165,0,
2.8133,1372.8,266.7,1476.9,-1059.0,490.5,162.3,-554.1,0,0,5064,0,166,0,
2.8167,1360.2,263.7,1467.3,-1060.8,483.9,150.6,-576.0,0,0,5070,0,167,0,
2.8200,1370.7,264.9,1464.6,-1059.3,492.9,161.7,-564.6,0,0,5076,0,168,0,
2.8233,1375.2,267.3,1475.1,-1052.4,491.7,166.2,-561.6,0,0,5082,0,169,0,
2.8267,1391.4,282.9,1490.1,-1044.3,500.1,166.8,-546.0,0,0,5088,0,170,0,
2.8300,1389.6,284.4,1485.9,-1047.6,500.1,168.0,-547.2,0,0,5094,0,171,0,
2.8333,1387.5,283.5,1482.6,-1049.1,498.0,166.8,-551.7,0,0,5100,0,172,0,
2.8367,1384.8,280.2,1478.1,-1051.8,496.2,168.0,-552.3,0,0,5106,0,173,0,
2.8400,1380.3,267.6,1474.2,-1054.2,493.8,159.6,-565.2,0,0,5112,0,174,0,
2.8433,1374.3,263.1,1474.8,-1052.1,496.8,164.4,-561.0,0,0,5118,0,175,0,
2.8467,1378.5,277.2,1486.5,-1045.2,498.9,171.3,-552.0,0,0,5124,0,176,0,
2.8500,1374.3,276.6,1488.9,-1047.0,497.1,170.4,-551.1,0,0,5130,0,177,0,
2.8533,1374.9,271.8,1489.8,-1048.8,495.9,161.1,-559.5,0,0,5136,0,178,0,
2.8567,1382.1,273.6,1474.5,-1052.7,495.3,168.3,-554.4,0,0,5142,0,179,0,
2.8600,1379.4,275.4,1480.5,-1046.4,490.5,166.2,-548.7,0,0,5148,0,180,0,
2.8633,1377.9,266.1,1478.7,-1052.7,483.6,158.7,-553.8,0,0,5154,0,181,0,
2.8667,1368.0,261.3,1473.6,-1060.2,480.0,153.3,-555.0,0,0,5160,0,182,0,
2.8700,1363.5,262.5,1471.5,-1060.5,479.7,156.0,-555.3,0,0,5166,0,183,0,
2.8733,1366.8,261.6,1469.1,-1060.8,479.1,155.4,-557.1,0,0,5172,0,184,0,
2.8767,1377.3,261.0,1472.1,-1056.9,483.0,161.7,-549.0,0,0,5178,0,185,0,
2.8800,1379.1,265.2,1482.6,-1054.2,486.0,164.7,-548.4,0,0,5184,0,186,0,
2.8833,1379.1,267.6,1482.6,-1056.6,483.6,164.7,-549.0,0,0,5190,0,187,0,
2.8867,1373.7,264.0,1478.1,-1059.3,482.4,160.8,-557.1,0,0,5196,0,188,0,
2.8900,1364.1,254.4,1467.3,-1061.7,484.8,163.8,-562.8,0,0,5202,0,189,0,
2.8933,1378.5,257.7,1476.3,-1055.7,486.6,164.4,-555.6,0,0,5208,0,190,0,
2.8967,1378.5,262.5,1473.6,-1055.1,492.0,157.5,-551.7,0,0,5214,0,191,0,
2.9000,1384.5,277.5,1482.0,-1048.8,495.9,169.5,-547.2,0,0,5220,0,192,0,
2.9033,1386.0,274.2,1473.9,-1051.5,498.0,174.0,-541.8,0,0,5226,0,193,0,
2.9067,1395.6,280.5,1476.0,-1048.2,499.2,177.9,-528.9,0,0,5232,0,194,0,
2.9100,1387.8,272.1,1485.9,-1046.1,499.2,172.5,-528.3,0,0,5238,0,195,0,
2.9133,1380.9,277.8,1490.4,-1046.7,500.4,168.6,-548.1,0,0,5244,0,196,0,
2.9167,1382.7,275.7,1485.9,-1042.8,502.2,173.7,-539.4,0,0,5250,0,197,0,
2.9200,1377.9,275.1,1490.1,-1046.1,501.3,174.6,-540.9,0,0,5256,0,198,0,
2.9233,1385.7,277.8,1490.7,-1040.1,505.8,174.9,-538.5,0,0,5262,0,199,0,
2.9267,1380.9,271.2,1486.5,-1038.6,507.3,172.2,-537.3,0,0,5268,0,200,0,
2.9300,1388.1,270.3,1482.0,-1037.4,505.8,174.0,-533.1,0,0,5274,0,201,0,
2.9333,1382.1,268.5,1490.7,-1042.5,498.6,174.3,-541.8,0,0,5280,0,202,0,
2.9367,1384.5,262.5,1474.8,-1045.2,497.7,169.8,-545.1,0,0,5286,0,203,0,
2.9400,1382.4,265.5,1482.0,-1045.2,496.8,176.7,-540.6,0,0,5292,0,204,0,
2.9433,1390.8,268.2,1477.2,-1042.2,501.0,176.1,-529.8,0,0,5298,0,205,0,
2.9467,1385.1,273.0,1473.3,-1042.5,507.9,186.3,-522.9,0,0,5304,0,206,0,
2.9500,1383.6,267.0,1466.7,-1042.2,499.8,169.5,-543.3,0,0,5310,0,207,0,
2.9533,1383.0,264.3,1474.8,-1048.2,496.5,176.1,-539.1,0,0,5316,0,208,0,
2.9567,1380.3,259.5,1479.0,-1048.5,489.3,175.5,-541.2,0,0,5322,0,209,0,
2.9600,1373.7,250.2,1458.9,-1062.3,483.9,158.1,-553.2,0,0,5328,0,210,0,
2.9633,1367.7,254.1,1454.7,-1058.7,485.1,162.9,-552.6,0,0,5334,0,211,0,
2.9667,1375.5,269.7,1472.1,-1048.8,495.3,172.8,-540.3,0,0,5340,0,212,0,
2.9700,1380.3,265.8,1464.9,-1051.5,495.0,166.8,-544.2,0,0,5346,0,213,0,
2.9733,1382.1,261.6,1461.6,-1052.1,495.3,171.3,-539.1,0,0,5352,0,214,0,
2.9767,1379.4,262.5,1455.3,-1053.6,490.8,172.8,-545.4,0,0,5358,0,215,0,
2.9800,1376.4,255.9,1451.7,-1054.2,488.7,163.2,-543.6,0,0,5364,0,216,0,
2.9833,1372.5,249.0,1447.5,-1065.0,482.1,156.6,-545.4,0,0,5370,0,217,0,
2.9867,1381.2,248.4,1457.1,-1060.5,484.5,167.7,-538.2,0,0,5376,0,218,0,
2.9900,1384.8,256.5,1461.0,-1053.3,488.1,175.2,-529.5,0,0,5382,0,219,0,
2.9933,1391.7,267.9,1465.8,-1050.3,493.5,177.9,-526.2,0,0,5388,0,220,0,
2.9967,1397.1,272.4,1472.7,-1043.1,498.6,185.1,-521.1,0,0,5394,0,221,0,
3.0000,1397.1,270.0,1475.7,-1037.1,504.0,190.8,-522.3,0,0,5400,0,222,0,
3.0033,1402.2,277.2,1478.1,-1031.1,512.7,195.6,-519.0,0,0,5406,0,223,0,
3.0067,1402.5,277.8,1477.5,-1034.7,512.7,203.1,-515.7,0,0,5412,0,224,0,
3.0100,1400.4,275.7,1479.9,-1035.6,513.3,188.1,-519.6,0,0,5418,0,225,0,
3.0133,1396.2,272.4,1479.3,-1038.9,512.7,186.3,-523.2,0,0,5424,0,226,0,
3.0167,1402.5,279.6,1483.2,-1034.1,513.0,187.8,-519.9,0,0,5430,0,227,0,
3.0200,1406.4,280.2,1490.7,-1029.9,517.2,196.5,-511.2,0,0,5436,0,228,0,
3.0233,1407.9,282.6,1482.9,-1027.5,518.4,205.8,-508.2,0,0,5442,0,229,0,
3.0267,1405.5,281.4,1490.7,-1029.6,518.7,203.4,-509.4,0,0,5448,0,230,0,
3.0300,1407.6,281.4,1485.0,-1033.8,510.0,192.6,-515.4,0,0,5454,0,231,0,
3.0333,1397.7,272.4,1471.2,-1041.6,504.9,185.7,-522.0,0,0,5460,0,232,0,
3.0367,1404.9,273.6,1479.3,-1034.1,507.9,192.6,-515.1,0,0,5466,0,233,0,
3.0400,1408.2,269.7,1463.7,-1038.0,510.9,191.4,-516.9,0,0,5472,0,234,0,
3.0433,1413.0,273.0,1476.6,-1029.6,518.7,197.4,-515.1,0,0,5478,0,235,0,
3.0467,1404.3,261.6,1470.3,-1038.0,513.3,185.1,-527.7,0,0,5484,0,236,0,
3.0500,1403.4,264.3,1483.8,-1033.8,513.6,192.3,-525.0,0,0,5490,0,237,0,
3.0533,1400.7,264.3,1477.2,-1037.4,505.5,190.8,-523.2,0,0,5496,0,238,0,
3.0567,1411.8,270.6,1481.4,-1034.7,508.5,200.1,-509.7,0,0,5502,0,239,0,
3.0600,1410.6,268.8,1483.8,-1033.8,506.4,195.6,-511.2,0,0,5508,0,240,0,
3.0633,1408.8,266.7,1478.7,-1034.4,508.2,186.9,-510.6,0,0,5514,0,241,0,
3.0667,1408.2,276.0,1483.8,-1032.3,516.0,195.9,-507.6,0,0,5520,0,242,0,
3.0700,1414.8,277.8,1487.4,-1031.4,517.2,196.2,-503.7,0,0,5526,0,243,0,
3.0733,1401.9,275.7,1480.8,-1025.7,519.3,208.8,-505.5,0,0,5532,0,244,0,
3.0767,1417.5,275.1,1479.6,-1027.8,520.5,210.3,-500.4,0,0,5538,0,245,0,
3.0800,1411.8,272.4,1489.8,-1028.4,520.2,208.8,-499.5,0,0,5544,0,246,0,
3.0833,1416.6,269.4,1487.4,-1026.6,513.3,204.9,-498.6,0,0,5550,0,247,0,
3.0867,1417.5,272.1,1492.2,-1026.3,515.7,203.4,-499.2,0,0,5556,0,248,0,
3.0900,1417.5,276.0,1494.6,-1027.5,511.2,204.0,-495.6,0,0,5562,0,249,0,
3.0933,1409.1,274.2,1502.4,-1027.5,509.7,191.4,-501.0,0,0,5568,0,250,0,
3.0967,1410.9,272.1,1489.8,-1029.3,512.4,196.2,-496.8,0,0,5574,0,251,0,
3.1000,1398.9,264.9,1497.9,-1029.6,513.6,195.0,-502.5,0,0,5580,0,252,0,
3.1033,1403.4,278.7,1503.3,-1026.6,515.4,201.3,-491.7,0,0,5586,0,253,0,
3.1067,1410.3,295.2,1511.1,-1016.7,523.8,212.4,-483.9,0,0,5592,0,254,0,
3.1100,1419.9,288.9,1514.1,-1008.9,528.0,208.5,-482.4,0,0,5598,0,255,0,
3.1133,1424.1,285.6,1502.4,-1016.4,526.5,206.1,-482.7,0,0,5604,0,0,0,
3.1167,1421.1,282.0,1492.8,-1017.6,523.5,194.1,-484.5,0,0,5610,0,1,0,
3.1200,1415.1,273.9,1490.1,-1019.1,526.8,208.5,-487.5,0,0,5616,0,2,0,
3.1233,1417.2,278.4,1494.0,-1016.1,531.3,203.4,-482.4,0,0,5622,0,3,0,
3.1267,1416.3,285.0,1501.5,-1008.6,532.2,211.8,-478.8,0,0,5628,0,4,0,
3.1300,1406.4,276.3,1491.9,-1016.7,528.0,207.6,-486.6,0,0,5634,0,5,0,
3.1333,1406.4,276.9,1495.8,-1018.5,522.9,207.6,-492.6,0,0,5640,0,6,0,
3.1367,1407.6,272.4,1497.6,-1018.2,521.7,204.6,-491.1,0,0,5646,0,7,0,
3.1400,1404.0,275.7,1497.0,-1021.8,518.4,201.3,-491.1,0,0,5652,0,8,0,
3.1433,1408.2,261.0,1483.8,-1023.9,516.0,192.9,-501.3,0,0,5658,0,9,0,
3.1467,1395.0,261.9,1474.8,-1025.4,515.1,194.1,-501.6,0,0,5664,0,10,0,
3.1500,1402.8,269.4,1475.7,-1022.7,518.1,202.2,-491.4,0,0,5670,0,11,0,
3.1533,1410.3,270.6,1484.4,-1022.4,517.5,205.8,-486.9,0,0,5676,0,12,0,
3.1567,1406.7,268.2,1485.9,-1025.4,513.3,200.7,-489.0,0,0,5682,0,13,0,
3.1600,1407.6,262.5,1473.0,-1027.8,513.6,207.6,-488.4,0,0,5688,0,14,0,
3.1633,1405.5,267.6,1472.4,-1028.1,510.9,204.3,-491.7,0,0,5694,0,15,0,
3.1667,1404.0,258.6,1466.4,-1030.2,513.3,201.0,-493.2,0,0,5700,0,16,0,
3.1700,1402.2,258.3,1471.5,-1032.0,507.9,200.7,-496.8,0,0,5706,0,17,0,
3.1733,1396.5,261.9,1476.6,-1028.4,511.5,191.4,-500.1,0,0,5712,0,18,0,
3.1767,1398.6,269.4,1474.8,-1027.8,508.5,183.0,-495.9,0,0,5718,0,19,0,
3.1800,1397.1,272.7,1481.7,-1027.2,510.9,198.3,-493.5,0,0,5724,0,20,0,
3.1833,1393.8,264.6,1475.4,-1035.0,506.1,187.5,-502.5,0,0,5730,0,21,0,
3.1867,1383.6,252.6,1467.9,-1033.2,507.0,195.3,-502.8,0,0,5736,0,22,0,
3.1900,1392.0,261.0,1476.0,-1025.7,508.2,189.6,-504.0,0,0,5742,0,23,0,
3.1933,1398.0,263.7,1479.6,-1025.7,510.9,189.0,-495.6,0,0,5748,0,24,0,
3.1967,1397.4,261.0,1479.3,-1026.3,511.8,186.6,-499.5,0,0,5754,0,25,0,
3.2000,1391.1,257.7,1480.5,-1030.5,505.8,183.3,-504.0,0,0,5760,0,26,0,
3.2033,1389.3,257.1,1475.4,-1034.7,500.7,178.5,-510.0,0,0,5766,0,27,0,
3.2067,1395.0,258.6,1468.5,-1034.4,496.2,182.1,-505.2,0,0,5772,0,28,0,
3.2100,1390.5,262.8,1468.8,-1030.8,501.0,186.3,-497.7,0,0,5778,0,29,0,
3.2133,1386.0,255.3,1458.0,-1039.8,493.5,176.4,-512.7,0,0,5784,0,30,0,
3.2167,1389.6,257.1,1461.3,-1036.8,498.3,180.9,-512.4,0,0,5790,0,31,0,
3.2200,1386.3,257.7,1450.8,-1036.2,499.2,180.9,-505.8,0,0,5796,0,32,0,
3.2233,1384.5,257.7,1457.1,-1042.8,497.1,174.9,-511.2,0,0,5802,0,33,0,
3.2267,1380.0,249.9,1460.1,-1041.0,500.4,172.2,-514.5,0,0,5808,0,34,0,
3.2300,1372.2,242.1,1455.6,-1047.0,502.5,186.0,-517.8,0,0,5814,0,35,0,
3.2333,1371.0,248.4,1461.9,-1036.8,501.9,186.0,-508.8,0,0,5820,0,36,0,
3.2367,1378.8,250.2,1461.6,-1032.0,500.4,176.7,-504.3,0,0,5826,0,37,0,
3.2400,1382.4,253.2,1467.3,-1029.6,507.0,172.5,-508.8,0,0,5832,0,38,0,
3.2433,1382.4,256.5,1458.3,-1041.9,503.1,169.5,-511.8,0,0,5838,0,39,0,
3.2467,1377.9,257.7,1460.7,-1040.1,497.7,170.7,-513.0,0,0,5844,0,40,0,
3.2500,1389.0,252.3,1464.0,-1034.1,503.7,179.1,-510.9,0,0,5850,0,41,0,
3.2533,1385.1,250.2,1470.9,-1036.5,498.0,174.9,-513.6,0,0,5856,0,42,0,
3.2567,1383.3,247.8,1474.5,-1044.3,497.4,172.2,-513.3,0,0,5862,0,43,0,
3.2600,1378.8,250.2,1463.1,-1045.2,498.6,176.1,-514.2,0,0,5868,0,44,0,
3.2633,1375.8,244.5,1465.2,-1049.7,497.4,170.1,-524.7,0,0,5874,0,45,0,
3.2667,1383.9,246.3,1466.1,-1045.5,493.2,173.4,-516.3,0,0,5880,0,46,0,
3.2700,1378.5,243.3,1471.2,-1044.9,492.6,170.1,-522.9,0,0,5886,0,47,0,
3.2733,1378.5,237.3,1468.5,-1043.7,492.6,172.2,-525.0,0,0,5892,0,48,0,
3.2767,1377.9,237.9,1454.7,-1046.4,489.6,161.7,-525.9,0,0,5898,0,49,0,
3.2800,1370.1,236.1,1458.9,-1047.0,489.9,166.2,-528.0,0,0,5904,0,50,0,
3.2833,1370.1,230.1,1454.4,-1053.6,485.4,163.5,-533.4,0,0,5910,0,51,0,
3.2867,1373.4,233.7,1457.1,-1050.3,487.2,167.4,-531.3,0,0,5916,0,52,0,
3.2900,1384.8,235.5,1455.0,-1050.6,490.8,171.0,-526.8,0,0,5922,0,53,0,
3.2933,1367.1,233.1,1456.8,-1047.3,490.8,168.0,-531.9,0,0,5928,0,54,0,
3.2967,1385.4,244.5,1466.4,-1037.4,500.1,177.0,-519.6,0,0,5934,0,55,0,
3.3000,1382.1,249.3,1478.7,-1038.9,501.3,184.8,-520.8,0,0,5940,0,56,0,
3.3033,1380.9,243.3,1473.0,-1043.1,496.8,179.1,-523.5,0,0,5946,0,57,0,
3.3067,1374.0,243.6,1470.3,-1044.3,495.3,177.0,-526.5,0,0,5952,0,58,0,
3.3100,1373.7,222.9,1463.1,-1042.2,494.4,174.0,-526.8,0,0,5958,0,59,0,
3.3133,1365.3,222.3,1463.7,-1048.8,489.0,158.1,-536.4,0,0,5964,0,60,0,
3.3167,1370.1,228.6,1456.2,-1047.6,491.1,161.7,-534.6,0,0,5970,0,61,0,
3.3200,1363.8,225.3,1451.1,-1053.6,488.1,157.2,-539.7,0,0,5976,0,62,0,
3.3233,1363.2,221.4,1458.3,-1052.7,489.3,164.4,-537.0,0,0,5982,0,63,0,
3.3267,1365.6,222.0,1454.4,-1048.5,489.3,162.9,-535.8,0,0,5988,0,64,0,
3.3300,1356.0,219.9,1451.4,-1048.2,486.0,160.5,-538.2,0,0,5994,0,65,0,
3.3333,1364.7,232.8,1455.0,-1048.2,487.5,151.5,-529.8,0,0,6000,0,66,0,
3.3367,1350.6,223.5,1451.1,-1056.6,487.8,152.4,-550.2,0,0,6006,0,67,0,
3.3400,1346.7,218.4,1445.1,-1055.7,481.5,147.3,-546.0,0,0,6012,0,68,0,
3.3433,1356.3,220.5,1452.3,-1052.1,482.1,162.3,-540.3,0,0,6018,0,69,0,
3.3467,1384.8,240.6,1470.9,-1046.1,485.4,169.8,-518.7,0,0,6024,0,70,0,
3.3500,1392.9,243.9,1478.4,-1042.8,490.8,180.3,-519.3,0,0,6030,0,71,0,
3.3533,1381.5,234.6,1463.1,-1044.0,492.9,168.9,-522.3,0,0,6036,0,72,0,
3.3567,1381.2,240.6,1464.3,-1037.1,495.9,172.2,-511.5,0,0,6042,0,73,0,
3.3600,1381.5,242.4,1467.0,-1033.8,498.9,175.2,-512.1,0,0,6048,0,74,0,
3.3633,1377.6,241.2,1473.9,-1034.7,501.9,174.0,-513.3,0,0,6054,0,75,0,
3.3667,1370.4,231.0,1463.4,-1046.7,497.4,173.4,-519.0,0,0,6060,0,76,0,
3.3700,1357.2,221.4,1451.1,-1047.9,496.5,172.2,-524.4,0,0,6066,0,77,0,
3.3733,1369.5,219.9,1456.5,-1043.7,494.4,162.3,-527.4,0,0,6072,0,78,0,
3.3767,1362.3,228.0,1453.2,-1042.8,494.1,160.5,-531.0,0,0,6078,0,79,0,
3.3800,1363.5,229.2,1456.2,-1049.1,490.2,158.4,-532.2,0,0,6084,0,80,0,
3.3833,1354.5,220.2,1465.8,-1050.0,487.5,148.8,-533.1,0,0,6090,0,81,0,
3.3867,1349.1,212.4,1444.8,-1058.7,478.2,140.7,-538.2,0,0,6096,0,82,0,
3.3900,1344.9,204.6,1433.4,-1063.8,468.9,136.2,-545.1,0,0,6102,0,83,0,
3.3933,1334.7,191.7,1440.3,-1063.8,467.7,126.3,-564.6,0,0,6108,0,84,0,
3.3967,1332.0,184.8,1431.3,-1070.7,469.5,135.0,-555.3,0,0,6114,0,85,0,
3.4000,1339.8,192.0,1427.7,-1077.6,465.6,124.8,-556.8,0,0,6120,0,86,0,
3.4033,1344.6,201.9,1432.2,-1075.8,466.8,136.5,-541.8,0,0,6126,0,87,0,
3.4067,1331.1,194.7,1430.4,-1081.5,457.5,134.1,-558.3,0,0,6132,0,88,0,
3.4100,1332.6,196.5,1425.6,-1079.4,459.9,131.7,-550.8,0,0,6138,0,89,0,
3.4133,1331.4,202.2,1432.2,-1082.1,462.0,128.1,-546.6,0,0,6144,0,90,0,
3.4167,1341.0,211.2,1439.4,-1074.3,465.6,141.0,-536.1,0,0,6150,0,91,0,
3.4200,1337.1,218.1,1437.9,-1073.1,473.1,146.4,-530.4,0,0,6156,0,92,0,
3.4233,1332.9,210.0,1433.7,-1076.7,467.1,136.8,-535.2,0,0,6162,0,93,0,
3.4267,1336.8,211.8,1439.4,-1070.4,471.6,145.2,-530.1,0,0,6168,0,94,0,
3.4300,1354.5,220.2,1451.4,-1060.5,480.9,157.8,-518.4,0,0,6174,0,95,0,
3.4333,1355.7,216.3,1456.5,-1055.7,489.0,151.8,-519.6,0,0,6180,0,96,0,
3.4367,1356.6,216.6,1450.2,-1060.5,488.1,150.6,-525.9,0,0,6186,0,97,0,
3.4400,1347.6,215.7,1452.6,-1062.6,486.0,153.0,-525.6,0,0,6192,0,98,0,
3.4433,1348.2,210.6,1442.1,-1060.2,486.9,158.7,-525.9,0,0,6198,0,99,0,
3.4467,1341.0,198.9,1438.5,-1059.6,483.6,146.4,-533.1,0,0,6204,0,100,0,
3.4500,1342.2,191.1,1439.7,-1062.6,484.2,141.3,-541.5,0,0,6210,0,101,0,
3.4533,1348.5,209.4,1456.8,-1054.5,494.7,148.2,-533.7,0,0,6216,0,102,0,
3.4567,1363.8,212.1,1444.8,-1059.3,495.0,158.1,-522.3,0,0,6222,0,103,0,
3.4600,1358.7,211.5,1447.5,-1056.6,491.4,162.3,-519.9,0,0,6228,0,104,0,
3.4633,1356.6,211.8,1452.6,-1055.1,488.7,157.5,-523.2,0,0,6234,0,105,0,
3.4667,1354.5,212.7,1444.8,-1058.7,493.8,160.5,-527.1,0,0,6240,0,106,0,
3.4700,1345.5,200.4,1432.8,-1063.8,486.3,155.1,-534.3,0,0,6246,0,107,0,
3.4733,1341.9,199.5,1432.5,-1060.5,483.9,149.7,-539.7,0,0,6252,0,108,0,
3.4767,1345.2,196.8,1433.4,-1058.4,487.5,150.0,-534.9,0,0,6258,0,109,0,
3.4800,1339.2,191.7,1433.7,-1057.2,482.4,144.9,-543.0,0,0,6264,0,110,0,
3.4833,1334.7,177.9,1428.9,-1068.9,474.0,127.5,-556.8,0,0,6270,0,111,0,
3.4867,1330.2,177.3,1430.7,-1067.4,475.8,136.8,-556.2,0,0,6276,0,112,0,
3.4900,1326.0,175.5,1431.0,-1070.7,470.4,135.6,-559.2,0,0,6282,0,113,0,
3.4933,1332.6,178.2,1429.5,-1074.6,476.7,137.1,-551.1,0,0,6288,0,114,0,
3.4967,1332.3,180.6,1437.9,-1066.8,471.0,136.8,-553.2,0,0,6294,0,115,0,
3.5000,1330.5,174.9,1437.9,-1072.2,469.8,132.3,-556.2,0,0,6300,0,116,0,
3.5033,1331.7,182.4,1430.7,-1068.3,474.3,136.8,-551.7,0,0,6306,0,117,0,
3.5067,1338.9,199.8,1427.7,-1064.1,474.9,141.0,-548.4,0,0,6312,0,118,0,
3.5100,1345.8,196.2,1438.8,-1056.6,482.4,149.7,-542.1,0,0,6318,0,119,0,
3.5133,1342.2,189.6,1443.3,-1054.5,480.9,142.5,-540.0,0,0,6324,0,120,0,
3.5167,1355.4,198.3,1441.2,-1051.2,494.1,161.7,-531.9,0,0,6330,0,121,0,
3.5200,1358.1,199.5,1448.7,-1045.8,496.2,163.2,-529.2,0,0,6336,0,122,0,
3.5233,1361.4,198.3,1449.3,-1047.0,491.7,159.0,-527.7,0,0,6342,0,123,0,
3.5267,1353.6,197.1,1450.5,-1048.5,492.3,159.9,-531.3,0,0,6348,0,124,0,
3.5300,1352.7,194.1,1447.5,-1051.2,495.0,158.4,-532.8,0,0,6354,0,125,0,
3.5333,1358.1,195.3,1448.1,-1045.8,500.7,158.7,-524.7,0,0,6360,0,126,0,
3.5367,1359.0,200.7,1454.1,-1041.9,500.4,160.5,-523.2,0,0,6366,0,127,0,
3.5400,1348.5,185.4,1447.8,-1049.7,489.6,153.3,-538.8,0,0,6372,0,128,0,
3.5433,1353.6,190.8,1442.4,-1054.8,489.6,155.1,-543.9,0,0,6378,0,129,0,
3.5467,1353.0,194.7,1443.3,-1054.8,486.3,156.3,-534.3,0,0,6384,0,130,0,
3.5500,1352.7,193.8,1443.3,-1056.0,485.1,150.0,-538.2,0,0,6390,0,131,0,
3.5533,1350.9,189.6,1447.8,-1051.2,487.8,152.1,-539.4,0,0,6396,0,132,0,
3.5567,1353.3,190.2,1452.0,-1047.0,491.7,159.3,-538.2,0,0,6402,0,133,0,
3.5600,1354.8,194.4,1461.0,-1048.5,490.2,165.6,-529.5,0,0,6408,0,134,0,
3.5633,1355.7,197.7,1462.2,-1041.3,492.9,157.5,-526.2,0,0,6414,0,135,0,
3.5667,1353.0,189.0,1462.8,-1045.8,491.4,151.5,-529.2,0,0,6420,0,136,0,
3.5700,1361.1,198.0,1458.0,-1051.2,490.5,154.2,-528.6,0,0,6426,0,137,0,
3.5733,1357.2,194.7,1465.5,-1051.2,488.7,151.5,-528.6,0,0,6432,0,138,0,
3.5767,1347.6,188.7,1457.4,-1056.9,483.9,146.7,-534.0,0,0,6438,0,139,0,
3.5800,1340.7,194.7,1466.7,-1055.4,480.9,137.4,-541.2,0,0,6444,0,140,0,
3.5833,1343.7,193.8,1456.2,-1057.5,485.4,148.2,-539.7,0,0,6450,0,141,0,
3.5867,1336.8,185.4,1458.0,-1055.7,486.3,147.3,-545.7,0,0,6456,0,142,0,
3.5900,1349.1,188.1,1470.3,-1053.9,489.9,149.4,-535.5,0,0,6462,0,143,0,
3.5933,1352.1,208.8,1485.0,-1047.0,495.0,163.2,-513.0,0,0,6468,0,144,0,
3.5967,1346.4,201.0,1472.1,-1046.7,490.8,157.5,-513.9,0,0,6474,0,145,0,
3.6000,1344.0,198.0,1477.8,-1047.3,490.5,153.3,-515.7,0,0,6480,0,146,0,
3.6033,1341.9,189.9,1466.4,-1051.5,489.6,156.9,-520.8,0,0,6486,0,147,0,
3.6067,1346.7,201.0,1473.6,-1049.1,492.3,157.8,-511.5,0,0,6492,0,148,0,
3.6100,1352.1,219.9,1480.8,-1042.8,499.2,167.4,-495.6,0,0,6498,0,149,0,
3.6133,1355.4,215.7,1488.3,-1041.3,503.1,167.1,-498.9,0,0,6504,0,150,0,
3.6167,1356.0,219.6,1494.3,-1037.4,507.3,167.7,-490.8,0,0,6510,0,151,0,
3.6200,1360.2,219.9,1496.7,-1035.3,508.2,169.2,-489.9,0,0,6516,0,152,0,
3.6233,1355.4,222.6,1496.7,-1032.6,508.8,177.0,-475.2,0,0,6522,0,153,0,
3.6267,1353.6,229.5,1488.3,-1031.1,507.3,176.7,-477.0,0,0,6528,0,154,0,
3.6300,1364.1,230.1,1490.1,-1036.5,513.9,180.3,-473.4,0,0,6534,0,155,0,
3.6333,1354.8,226.8,1502.1,-1031.7,512.4,179.4,-472.2,0,0,6540,0,156,0,
3.6367,1353.9,220.5,1483.8,-1044.0,505.2,178.2,-481.5,0,0,6546,0,157,0,
3.6400,1365.9,237.0,1489.5,-1038.6,509.4,178.2,-470.4,0,0,6552,0,158,0,
3.6433,1357.8,231.6,1489.5,-1038.3,505.8,173.1,-475.2,0,0,6558,0,159,0,
3.6467,1357.2,224.1,1487.7,-1038.0,500.1,160.2,-481.8,0,0,6564,0,160,0,
3.6500,1357.5,213.0,1481.1,-1040.1,502.2,174.3,-481.2,0,0,6570,0,161,0,
3.6533,1353.6,215.1,1485.3,-1035.3,499.8,171.9,-487.2,0,0,6576,0,162,0,
3.6567,1360.5,216.6,1480.8,-1037.7,497.4,173.4,-482.4,0,0,6582,0,163,0,
3.6600,1362.6,215.7,1482.6,-1036.5,498.3,171.0,-483.6,0,0,6588,0,164,0,
3.6633,1354.8,214.2,1474.8,-1037.7,502.8,175.2,-485.7,0,0,6594,0,165,0,
3.6667,1349.7,207.3,1469.7,-1039.2,498.0,168.3,-489.9,0,0,6600,0,166,0,
3.6700,1342.8,197.4,1467.3,-1048.2,491.1,154.8,-496.8,0,0,6606,0,167,0,
3.6733,1335.0,191.7,1459.8,-1054.8,487.5,144.9,-499.2,0,0,6612,0,168,0,
3.6767,1342.2,191.1,1457.4,-1051.8,487.2,150.6,-501.9,0,0,6618,0,169,0,
3.6800,1346.4,198.3,1466.1,-1051.5,490.2,151.8,-498.9,0,0,6624,0,170,0,
3.6833,1346.7,209.1,1468.2,-1045.5,493.8,158.1,-496.2,0,0,6630,0,171,0,
3.6867,1347.9,200.4,1467.6,-1039.8,489.3,163.2,-490.5,0,0,6636,0,172,0,
3.6900,1348.8,200.1,1472.1,-1039.5,494.1,162.9,-486.9,0,0,6642,0,173,0,
3.6933,1351.8,201.0,1482.6,-1037.4,497.1,163.8,-490.5,0,0,6648,0,174,0,
3.6967,1345.5,204.6,1474.8,-1043.1,492.6,165.9,-488.1,0,0,6654,0,175,0,
3.7000,1351.2,210.9,1476.3,-1042.5,494.4,177.0,-475.8,0,0,6660,0,176,0,
3.7033,1354.8,205.5,1470.3,-1043.7,493.5,164.4,-484.2,0,0,6666,0,177,0,
3.7067,1357.5,200.4,1476.6,-1037.7,498.9,168.9,-483.0,0,0,6672,0,178,0,
3.7100,1343.4,196.5,1470.9,-1045.5,494.4,164.4,-488.4,0,0,6678,0,179,0,
3.7133,1350.0,199.5,1468.2,-1047.9,493.2,168.0,-485.1,0,0,6684,0,180,0,
3.7167,1357.2,209.1,1470.0,-1042.5,498.3,175.8,-483.3,0,0,6690,0,181,0,
3.7200,1367.7,216.9,1487.1,-1033.2,496.2,176.4,-479.4,0,0,6696,0,182,0,
3.7233,1347.9,202.5,1480.8,-1038.3,503.1,185.4,-474.0,0,0,6702,0,183,0,
3.7267,1357.8,201.0,1485.0,-1038.0,501.0,181.2,-480.0,0,0,6708,0,184,0,
3.7300,1349.7,190.2,1470.0,-1049.7,496.5,165.0,-484.5,0,0,6714,0,185,0,
3.7333,1344.6,178.8,1465.5,-1050.6,496.5,166.8,-488.1,0,0,6720,0,186,0,
3.7367,1347.0,185.4,1465.5,-1047.6,497.7,162.3,-486.6,0,0,6726,0,187,0,
3.7400,1344.6,188.7,1464.9,-1053.0,494.7,161.7,-484.8,0,0,6732,0,188,0,
3.7433,1335.6,180.6,1461.6,-1057.8,493.8,157.2,-495.3,0,0,6738,0,189,0,
3.7467,1336.2,182.4,1473.0,-1052.4,491.7,157.2,-493.5,0,0,6744,0,190,0,
3.7500,1329.6,179.4,1460.7,-1059.0,492.0,156.6,-495.9,0,0,6750,0,191,0,
3.7533,1332.3,171.9,1457.7,-1062.0,489.3,161.4,-494.4,0,0,6756,0,192,0,
3.7567,1328.7,165.3,1462.8,-1058.1,486.6,161.7,-491.1,0,0,6762,0,193,0,
3.7600,1335.9,177.3,1457.4,-1057.8,493.8,161.4,-485.4,0,0,6768,0,194,0,
3.7633,1338.0,186.3,1456.8,-1055.7,495.9,160.5,-483.0,0,0,6774,0,195,0,
3.7667,1329.9,182.1,1465.8,-1059.9,484.5,155.4,-489.3,0,0,6780,0,196,0,
3.7700,1333.2,175.2,1456.8,-1059.3,485.1,164.4,-487.5,0,0,6786,0,197,0,
3.7733,1338.3,178.5,1464.3,-1051.2,485.7,172.5,-478.5,0,0,6792,0,198,0,
3.7767,1339.8,181.5,1463.1,-1045.5,490.5,162.9,-478.5,0,0,6798,0,199,0,
3.7800,1322.7,169.2,1447.5,-1054.5,484.2,156.9,-480.3,0,0,6804,0,200,0,
3.7833,1338.6,177.3,1454.7,-1052.7,488.7,156.9,-483.6,0,0,6810,0,201,0,
3.7867,1341.6,177.3,1456.2,-1056.3,486.3,162.3,-485.4,0,0,6816,0,202,0,
3.7900,1340.4,170.1,1463.4,-1050.0,487.2,172.2,-482.7,0,0,6822,0,203,0,
3.7933,1329.6,160.5,1449.9,-1054.8,479.1,160.8,-497.7,0,0,6828,0,204,0,
3.7967,1329.3,158.7,1454.4,-1059.0,476.7,150.0,-500.7,0,0,6834,0,205,0,
3.8000,1336.5,168.6,1458.0,-1054.2,479.7,156.6,-495.9,0,0,6840,0,206,0,
3.8033,1325.7,162.9,1450.5,-1061.1,480.0,154.2,-505.2,0,0,6846,0,207,0,
3.8067,1343.1,170.4,1457.7,-1056.3,480.9,170.4,-492.0,0,0,6852,0,208,0,
3.8100,1345.2,162.9,1461.6,-1060.8,484.2,163.2,-493.8,0,0,6858,0,209,0,
3.8133,1346.4,162.9,1464.0,-1053.9,479.1,162.6,-490.8,0,0,6864,0,210,0,
3.8167,1344.6,165.9,1460.4,-1057.2,487.5,159.0,-492.6,0,0,6870,0,211,0,
3.8200,1347.9,180.0,1469.7,-1052.7,489.9,161.7,-484.8,0,0,6876,0,212,0,
3.8233,1340.1,163.8,1454.4,-1055.1,483.6,156.9,-495.0,0,0,6882,0,213,0,
3.8267,1335.6,153.3,1444.2,-1059.9,479.1,153.0,-497.1,0,0,6888,0,214,0,
3.8300,1340.7,160.5,1455.0,-1058.4,483.9,165.3,-493.8,0,0,6894,0,215,0,
3.8333,1332.6,158.4,1460.7,-1054.2,481.5,168.9,-489.6,0,0,6900,0,216,0,
3.8367,1332.6,152.1,1451.7,-1053.3,481.5,152.7,-485.7,0,0,6906,0,217,0,
3.8400,1338.0,154.5,1455.9,-1051.2,481.8,149.4,-484.5,0,0,6912,0,218,0,
3.8433,1329.3,158.7,1461.0,-1052.1,480.0,147.6,-489.9,0,0,6918,0,219,0,
3.8467,1347.3,165.3,1468.5,-1047.9,490.2,161.1,-485.1,0,0,6924,0,220,0,
3.8500,1355.7,177.3,1464.0,-1042.2,495.6,175.2,-474.3,0,0,6930,0,221,0,
3.8533,1349.1,179.4,1464.0,-1041.9,497.7,175.2,-473.4,0,0,6936,0,222,0,
3.8567,1354.8,189.9,1474.5,-1034.7,503.4,183.6,-467.4,0,0,6942,0,223,0,
3.8600,1350.0,183.3,1481.1,-1032.9,501.3,176.1,-469.5,0,0,6948,0,224,0,
3.8633,1357.8,180.9,1476.6,-1034.1,503.4,176.4,-475.5,0,0,6954,0,225,0,
3.8667,1368.9,180.0,1475.7,-1033.5,503.7,183.0,-462.0,0,0,6960,0,226,0,
3.8700,1360.5,183.0,1475.4,-1023.0,505.8,184.5,-471.3,0,0,6966,0,227,0,
3.8733,1363.5,173.4,1476.6,-1026.9,504.0,188.7,-465.6,0,0,6972,0,228,0,
3.8767,1352.4,171.9,1467.9,-1036.5,503.1,181.2,-468.9,0,0,6978,0,229,0,
3.8800,1353.0,175.2,1475.4,-1038.3,501.0,180.0,-466.2,0,0,6984,0,230,0,
3.8833,1356.6,185.4,1475.7,-1036.8,504.6,179.7,-464.7,0,0,6990,0,231,0,
3.8867,1356.6,179.4,1466.1,-1041.9,506.4,174.9,-471.0,0,0,6996,0,232,0,
3.8900,1355.4,174.6,1462.2,-1041.0,499.2,177.0,-473.1,0,0,7002,0,233,0,
3.8933,1360.2,183.9,1471.5,-1035.9,506.4,185.7,-463.2,0,0,7008,0,234,0,
3.8967,1361.4,190.5,1466.7,-1028.7,510.9,185.1,-460.8,0,0,7014,0,235,0,
3.9000,1362.0,189.3,1475.4,-1032.3,510.3,192.0,-462.9,0,0,7020,0,236,0,
3.9033,1351.5,176.1,1470.9,-1035.9,510.6,181.2,-469.5,0,0,7026,0,237,0,
3.9067,1353.3,175.2,1471.8,-1035.3,510.0,178.5,-471.3,0,0,7032,0,238,0,
3.9100,1365.0,185.1,1476.3,-1026.0,514.2,177.0,-461.4,0,0,7038,0,239,0,
3.9133,1366.2,190.2,1485.6,-1023.6,512.4,187.8,-464.1,0,0,7044,0,240,0,
3.9167,1364.1,192.0,1479.9,-1026.9,510.9,186.6,-458.1,0,0,7050,0,241,0,
3.9200,1370.7,190.2,1476.6,-1022.7,511.2,189.9,-456.0,0,0,7056,0,242,0,
3.9233,1373.4,184.8,1479.3,-1023.9,511.5,186.3,-456.9,0,0,7062,0,243,0,
3.9267,1366.2,191.7,1474.5,-1020.0,510.3,186.3,-461.4,0,0,7068,0,244,0,
3.9300,1362.9,182.1,1467.0,-1029.9,502.5,184.5,-462.9,0,0,7074,0,245,0,
3.9333,1357.2,176.1,1475.1,-1030.5,502.5,181.2,-472.2,0,0,7080,0,246,0,
3.9367,1362.0,181.2,1473.9,-1032.0,505.2,179.1,-473.4,0,0,7086,0,247,0,
3.9400,1368.0,186.3,1474.8,-1027.5,513.6,188.7,-460.2,0,0,7092,0,248,0,
3.9433,1366.5,176.7,1479.3,-1026.9,514.2,199.5,-457.8,0,0,7098,0,249,0,
3.9467,1370.7,179.4,1480.8,-1030.2,514.2,195.0,-455.7,0,0,7104,0,250,0,
3.9500,1364.4,176.1,1470.6,-1026.6,512.4,182.7,-461.1,0,0,7110,0,251,0,
3.9533,1361.1,174.0,1468.8,-1031.4,513.6,180.9,-459.0,0,0,7116,0,252,0,
3.9567,1368.9,191.7,1472.7,-1025.4,512.4,189.0,-451.2,0,0,7122,0,253,0,
3.9600,1374.9,194.1,1476.0,-1027.2,511.5,189.3,-447.3,0,0,7128,0,254,0,
3.9633,1374.0,190.8,1471.5,-1027.2,512.7,184.5,-450.6,0,0,7134,0,255,0,
3.9667,1383.9,198.3,1482.0,-1019.4,519.9,199.8,-439.8,0,0,7140,0,0,0,
3.9700,1372.5,193.8,1476.9,-1024.5,512.7,189.0,-451.2,0,0,7146,0,1,0,
3.9733,1371.0,178.2,1478.7,-1022.4,514.8,192.9,-447.3,0,0,7152,0,2,0,
3.9767,1373.1,185.1,1480.5,-1020.0,519.0,194.1,-448.5,0,0,7158,0,3,0,
3.9800,1373.1,179.7,1476.3,-1025.1,518.7,191.4,-449.4,0,0,7164,0,4,0,
3.9833,1371.6,175.8,1469.4,-1024.2,521.4,193.5,-456.9,0,0,7170,0,5,0,
3.9867,1374.9,185.7,1479.9,-1015.8,521.4,198.9,-448.2,0,0,7176,0,6,0,
3.9900,1383.6,189.6,1483.5,-1014.6,527.7,196.5,-448.8,0,0,7182,0,7,0,
3.9933,1390.8,197.4,1495.2,-1012.8,531.9,206.1,-442.5,0,0,7188,0,8,0,
3.9967,1382.1,184.5,1485.0,-1013.1,529.5,204.3,-444.3,0,0,7194,0,9,0,
4.0000,1392.9,190.8,1478.7,-1012.2,529.8,207.3,-438.9,0,0,7200,0,10,0,
4.0033,1381.5,181.8,1480.2,-1018.2,519.6,196.5,-449.4,0,0,7206,0,11,0,
4.0067,1376.7,176.7,1472.1,-1018.5,518.4,193.5,-458.4,0,0,7212,0,12,0,
4.0100,1370.7,178.5,1470.3,-1026.3,514.8,190.8,-465.3,0,0,7218,0,13,0,
4.0133,1359.0,176.7,1472.4,-1029.6,511.8,185.1,-468.0,0,0,7224,0,14,0,
4.0167,1359.3,168.6,1459.2,-1034.7,506.1,181.8,-465.0,0,0,7230,0,15,0,
4.0200,1359.3,163.8,1466.4,-1036.2,504.9,176.7,-465.9,0,0,7236,0,16,0,
4.0233,1350.3,158.7,1464.0,-1036.8,501.3,184.2,-472.5,0,0,7242,0,17,0,
4.0267,1356.3,171.0,1464.0,-1040.1,496.2,176.7,-469.2,0,0,7248,0,18,0,
4.0300,1346.1,163.5,1458.9,-1049.1,483.0,169.2,-481.2,0,0,7254,0,19,0,
4.0333,1337.1,150.6,1457.1,-1049.7,485.1,160.8,-495.6,0,0,7260,0,20,0,
4.0367,1349.1,153.3,1459.8,-1049.7,488.1,168.3,-487.8,0,0,7266,0,21,0,
4.0400,1345.2,153.0,1454.4,-1047.9,489.9,163.2,-487.8,0,0,7272,0,22,0,
4.0433,1345.2,161.4,1455.3,-1053.0,489.0,167.4,-478.2,0,0,7278,0,23,0,
4.0467,1341.3,157.5,1439.7,-1054.5,485.4,160.2,-477.6,0,0,7284,0,24,0,
4.0500,1348.2,160.5,1444.5,-1054.8,484.5,158.4,-478.2,0,0,7290,0,25,0,
4.0533,1346.1,165.6,1452.3,-1047.9,489.9,158.1,-477.6,0,0,7296,0,26,0,
4.0567,1340.7,158.1,1454.1,-1056.0,490.5,171.9,-469.2,0,0,7302,0,27,0,
4.0600,1349.1,165.3,1441.2,-1057.5,481.8,165.3,-468.3,0,0,7308,0,28,0,
4.0633,1342.2,160.5,1442.4,-1062.6,478.8,155.1,-477.6,0,0,7314,0,29,0,
4.0667,1339.2,159.3,1452.9,-1061.4,478.8,155.1,-483.3,0,0,7320,0,30,0,
4.0700,1340.7,163.8,1463.1,-1054.2,478.2,158.1,-479.4,0,0,7326,0,31,0,
4.0733,1338.9,160.2,1453.2,-1058.1,478.8,158.7,-484.2,0,0,7332,0,32,0,
4.0767,1336.2,159.3,1449.9,-1055.4,482.4,158.4,-477.9,0,0,7338,0,33,0,
4.0800,1346.1,155.1,1458.9,-1057.8,481.5,166.8,-480.9,0,0,7344,0,34,0,
4.0833,1347.9,151.5,1458.9,-1056.9,482.7,163.8,-468.6,0,0,7350,0,35,0,
4.0867,1344.6,146.7,1458.6,-1059.9,478.2,167.7,-471.0,0,0,7356,0,36,0,
4.0900,1345.5,154.2,1459.2,-1062.9,477.9,165.3,-475.2,0,0,7362,0,37,0,
4.0933,1340.7,158.4,1453.5,-1065.3,477.9,167.7,-474.9,0,0,7368,0,38,0,
4.0967,1339.2,140.4,1446.9,-1066.5,479.4,159.3,-476.4,0,0,7374,0,39,0,
4.1000,1337.1,146.1,1445.7,-1064.1,476.7,153.9,-476.4,0,0,7380,0,40,0,
4.1033,1336.5,151.8,1449.0,-1066.2,471.3,153.0,-479.1,0,0,7386,0,41,0,
4.1067,1338.0,151.8,1456.5,-1062.0,475.8,153.6,-472.8,0,0,7392,0,42,0,
4.1100,1338.9,148.8,1451.7,-1059.9,474.6,158.7,-468.9,0,0,7398,0,43,0,
4.1133,1335.0,144.0,1451.7,-1060.2,480.6,156.6,-478.5,0,0,7404,0,44,0,
4.1167,1344.6,143.4,1452.3,-1059.0,478.2,160.2,-486.0,0,0,7410,0,45,0,
4.1200,1351.5,148.5,1461.3,-1049.1,490.5,167.7,-479.4,0,0,7416,0,46,0,
4.1233,1350.0,155.1,1460.7,-1051.5,491.1,168.6,-477.6,0,0,7422,0,47,0,
4.1267,1345.5,149.7,1462.2,-1057.8,486.3,161.7,-481.8,0,0,7428,0,48,0,
4.1300,1339.2,141.0,1455.0,-1063.5,479.4,161.1,-489.3,0,0,7434,0,49,0,
4.1333,1342.5,133.2,1452.3,-1070.7,481.8,165.3,-488.7,0,0,7440,0,50,0,
4.1367,1337.7,134.1,1449.9,-1073.1,472.8,154.8,-496.5,0,0,7446,0,51,0,
4.1400,1339.2,130.5,1449.6,-1075.5,471.6,153.9,-497.4,0,0,7452,0,52,0,
4.1433,1335.9,119.7,1442.7,-1080.9,469.8,147.9,-509.4,0,0,7458,0,53,0,
4.1467,1335.3,126.9,1443.0,-1080.9,470.1,147.6,-501.3,0,0,7464,0,54,0,
4.1500,1340.4,120.9,1440.6,-1078.8,466.5,146.4,-509.1,0,0,7470,0,55,0,
4.1533,1328.7,113.4,1439.1,-1083.9,462.6,132.3,-514.5,0,0,7476,0,56,0,
4.1567,1336.8,122.7,1440.6,-1083.6,465.0,140.7,-508.8,0,0,7482,0,57,0,
4.1600,1329.3,123.3,1447.5,-1082.1,465.0,133.8,-508.8,0,0,7488,0,58,0,
4.1633,1332.0,118.8,1447.2,-1077.9,464.4,137.4,-509.4,0,0,7494,0,59,0,
4.1667,1329.3,122.1,1452.0,-1075.2,470.4,141.9,-510.6,0,0,7500,0,60,0,
4.1700,1328.1,123.0,1454.4,-1073.7,469.2,140.1,-514.8,0,0,7506,0,61,0,
4.1733,1323.9,117.6,1449.6,-1080.0,463.2,135.0,-514.2,0,0,7512,0,62,0,
4.1767,1327.2,119.7,1445.4,-1081.2,468.0,144.6,-504.9,0,0,7518,0,63,0,
4.1800,1335.6,120.6,1446.3,-1083.9,467.4,142.8,-510.6,0,0,7524,0,64,0,
4.1833,1323.0,120.3,1443.3,-1083.6,465.6,137.4,-517.2,0,0,7530,0,65,0,
4.1867,1318.5,117.6,1434.6,-1086.6,462.6,138.6,-520.2,0,0,7536,0,66,0,
4.1900,1335.6,125.1,1443.3,-1081.5,470.7,152.1,-508.5,0,0,7542,0,67,0,
4.1933,1331.7,125.4,1453.5,-1077.9,473.7,148.8,-509.7,0,0,7548,0,68,0,
4.1967,1333.8,123.3,1458.3,-1080.0,474.0,142.8,-505.2,0,0,7554,0,69,0,
4.2000,1325.4,124.2,1442.7,-1084.5,470.1,143.4,-508.2,0,0,7560,0,70,0,
4.2033,1328.4,126.0,1440.9,-1081.5,472.5,150.0,-506.7,0,0,7566,0,71,0,
4.2067,1326.6,116.4,1432.8,-1088.7,462.6,141.6,-512.4,0,0,7572,0,72,0,
4.2100,1316.4,104.7,1433.1,-1091.7,459.3,139.5,-513.9,0,0,7578,0,73,0,
4.2133,1316.1,101.1,1432.2,-1090.5,460.2,143.1,-510.3,0,0,7584,0,74,0,
4.2167,1312.8,96.0,1432.8,-1090.5,460.2,133.8,-524.4,0,0,7590,0,75,0,
4.2200,1316.7,99.9,1437.0,-1088.7,465.3,134.7,-521.1,0,0,7596,0,76,0,
4.2233,1325.7,113.1,1439.4,-1079.1,472.2,144.0,-510.0,0,0,7602,0,77,0,
4.2267,1328.4,114.3,1449.0,-1075.8,472.2,140.4,-515.1,0,0,7608,0,78,0,
4.2300,1323.6,109.2,1447.5,-1080.9,470.1,134.1,-520.2,0,0,7614,0,79,0,
4.2333,1320.3,103.5,1445.7,-1083.6,474.3,140.4,-522.0,0,0,7620,0,80,0,
4.2367,1320.9,109.5,1447.2,-1083.0,476.1,149.7,-517.5,0,0,7626,0,81,0,
4.2400,1327.2,111.3,1445.4,-1079.1,481.5,152.7,-514.8,0,0,7632,0,82,0,
4.2433,1331.7,113.4,1452.0,-1075.2,482.7,148.5,-514.8,0,0,7638,0,83,0,
4.2467,1340.1,108.9,1447.5,-1071.6,487.5,151.8,-504.6,0,0,7644,0,84,0,
4.2500,1350.6,118.5,1455.0,-1071.6,489.6,160.5,-486.0,0,0,7650,0,85,0,
4.2533,1342.5,110.7,1436.1,-1075.2,485.4,157.8,-496.2,0,0,7656,0,86,0,
4.2567,1343.7,113.1,1434.3,-1071.3,492.3,162.0,-488.7,0,0,7662,0,87,0,
4.2600,1346.4,113.7,1432.8,-1068.6,494.1,156.6,-481.2,0,0,7668,0,88,0,
4.2633,1341.0,103.2,1430.4,-1075.8,487.5,155.4,-484.8,0,0,7674,0,89,0,
4.2667,1335.3,105.9,1433.4,-1069.2,491.1,153.0,-487.5,0,0,7680,0,90,0,
4.2700,1335.6,111.3,1433.4,-1073.7,489.3,157.8,-490.2,0,0,7686,0,91,0,
4.2733,1351.8,123.3,1437.6,-1066.8,492.6,165.0,-476.4,0,0,7692,0,92,0,
4.2767,1340.4,121.2,1437.9,-1064.7,492.6,163.8,-471.9,0,0,7698,0,93,0,
4.2800,1339.2,108.3,1425.6,-1068.0,489.9,155.4,-480.6,0,0,7704,0,94,0,
4.2833,1338.3,112.5,1427.7,-1072.2,491.4,164.7,-478.2,0,0,7710,0,95,0,
4.2867,1355.1,125.7,1436.7,-1062.3,495.9,179.7,-467.4,0,0,7716,0,96,0,
4.2900,1353.9,126.0,1440.0,-1062.9,496.2,178.2,-467.1,0,0,7722,0,97,0,
4.2933,1350.6,108.6,1438.2,-1066.2,498.6,167.1,-472.5,0,0,7728,0,98,0,
4.2967,1349.4,114.3,1442.4,-1068.9,495.9,161.7,-476.4,0,0,7734,0,99,0,
4.3000,1335.9,108.0,1434.9,-1075.2,492.6,155.7,-488.4,0,0,7740,0,100,0,
4.3033,1336.5,103.5,1427.7,-1080.3,480.9,147.6,-492.9,0,0,7746,0,101,0,
4.3067,1329.6,104.4,1421.1,-1085.4,480.3,143.4,-494.1,0,0,7752,0,102,0,
4.3100,1333.8,104.1,1426.2,-1082.7,483.0,148.8,-497.7,0,0,7758,0,103,0,
4.3133,1340.4,105.3,1435.8,-1077.3,487.8,153.3,-494.1,0,0,7764,0,104,0,
4.3167,1348.5,112.2,1445.7,-1073.1,488.7,160.5,-482.1,0,0,7770,0,105,0,
4.3200,1345.2,116.7,1441.8,-1069.5,489.0,160.2,-489.6,0,0,7776,0,106,0,
4.3233,1334.4,99.0,1431.0,-1080.6,479.7,138.0,-505.2,0,0,7782,0,107,0,
4.3267,1330.8,105.3,1436.1,-1080.6,480.3,150.6,-499.8,0,0,7788,0,108,0,
4.3300,1334.1,108.6,1437.0,-1079.4,482.4,152.1,-498.0,0,0,7794,0,109,0,
4.3333,1338.3,111.9,1445.7,-1072.2,480.6,158.7,-492.9,0,0,7800,0,110,0,
4.3367,1338.0,110.1,1441.2,-1069.2,482.1,158.1,-494.7,0,0,7806,0,111,0,
4.3400,1334.1,112.5,1441.8,-1071.0,480.0,161.7,-490.2,0,0,7812,0,112,0,
4.3433,1350.9,112.8,1442.1,-1067.4,486.0,162.9,-495.0,0,0,7818,0,113,0,
4.3467,1351.8,115.5,1449.0,-1066.8,489.0,161.7,-497.1,0,0,7824,0,114,0,
4.3500,1353.9,113.1,1443.0,-1065.6,488.7,158.4,-495.0,0,0,7830,0,115,0,
4.3533,1339.2,108.0,1437.3,-1069.5,489.3,161.7,-502.5,0,0,7836,0,116,0,
4.3567,1352.1,117.9,1445.7,-1066.8,492.9,164.4,-492.6,0,0,7842,0,117,0,
4.3600,1344.6,105.9,1443.9,-1066.8,494.7,158.4,-490.5,0,0,7848,0,118,0,
4.3633,1343.7,103.8,1438.2,-1068.6,489.6,153.6,-497.7,0,0,7854,0,119,0,
4.3667,1349.1,111.6,1442.7,-1068.6,489.3,156.6,-490.2,0,0,7860,0,120,0,
4.3700,1351.8,113.7,1439.7,-1066.2,494.4,163.2,-494.1,0,0,7866,0,121,0,
4.3733,1340.7,106.2,1439.4,-1072.8,491.4,161.7,-495.9,0,0,7872,0,122,0,
4.3767,1355.1,111.6,1443.3,-1064.7,501.0,173.1,-490.8,0,0,7878,0,123,0,
4.3800,1345.8,111.0,1439.1,-1066.5,492.6,158.4,-489.9,0,0,7884,0,124,0,
4.3833,1351.8,107.4,1446.3,-1065.6,489.6,151.5,-494.4,0,0,7890,0,125,0,
4.3867,1351.8,108.6,1451.7,-1063.8,498.3,168.0,-481.2,0,0,7896,0,126,0,
4.3900,1355.1,109.5,1454.1,-1065.3,492.9,160.2,-482.4,0,0,7902,0,127,0,
4.3933,1360.5,113.7,1460.1,-1066.8,492.3,159.3,-481.8,0,0,7908,0,128,0,
4.3967,1353.6,111.6,1452.9,-1063.5,490.2,151.2,-480.6,0,0,7914,0,129,0,
4.4000,1360.2,112.2,1454.1,-1065.3,493.5,166.8,-475.8,0,0,7920,0,130,0,
4.4033,1354.5,114.3,1457.4,-1059.6,492.9,154.8,-474.3,0,0,7926,0,131,0,
4.4067,1350.9,114.9,1449.3,-1063.5,487.5,160.2,-477.3,0,0,7932,0,132,0,
4.4100,1348.8,112.8,1447.5,-1067.1,489.3,157.2,-486.0,0,0,7938,0,133,0,
4.4133,1354.5,111.3,1447.2,-1067.4,493.2,166.8,-481.2,0,0,7944,0,134,0,
4.4167,1366.2,113.4,1455.0,-1056.3,507.3,182.1,-469.8,0,0,7950,0,135,0,
4.4200,1355.7,115.8,1461.0,-1059.6,507.0,176.7,-476.7,0,0,7956,0,136,0,
4.4233,1362.9,119.1,1456.8,-1058.1,505.8,174.3,-474.0,0,0,7962,0,137,0,
4.4267,1359.3,116.7,1453.5,-1061.4,507.0,171.0,-476.7,0,0,7968,0,138,0,
4.4300,1352.7,110.1,1447.2,-1061.7,500.4,163.5,-476.1,0,0,7974,0,139,0,
4.4333,1357.8,109.2,1456.5,-1060.8,500.7,162.0,-478.2,0,0,7980,0,140,0,
4.4367,1363.8,109.5,1457.7,-1055.1,500.1,167.7,-472.8,0,0,7986,0,141,0,
4.4400,1364.7,108.0,1462.8,-1056.0,501.6,174.6,-475.2,0,0,7992,0,142,0,
4.4433,1350.6,101.7,1455.3,-1058.7,497.4,168.9,-480.6,0,0,7998,0,143,0,
4.4467,1348.2,99.6,1447.8,-1062.3,497.7,159.6,-478.8,0,0,8004,0,144,0,
4.4500,1362.0,117.0,1455.6,-1056.9,501.6,158.1,-467.4,0,0,8010,0,145,0,
4.4533,1360.8,117.9,1455.3,-1056.0,501.6,166.8,-473.4,0,0,8016,0,146,0,
4.4567,1355.7,111.3,1447.8,-1057.2,503.7,157.8,-482.4,0,0,8022,0,147,0,
4.4600,1346.4,106.2,1459.2,-1056.9,500.4,163.5,-480.9,0,0,8028,0,148,0,
4.4633,1354.8,115.5,1459.5,-1058.1,501.9,167.1,-473.1,0,0,8034,0,149,0,
4.4667,1368.0,128.1,1458.0,-1052.1,506.1,174.9,-466.2,0,0,8040,0,150,0,
4.4700,1369.5,121.5,1467.0,-1054.8,507.6,181.5,-465.9,0,0,8046,0,151,0,
4.4733,1362.9,110.1,1475.1,-1055.4,503.1,170.4,-471.3,0,0,8052,0,152,0,
4.4767,1357.5,109.2,1480.8,-1060.5,496.5,164.4,-480.0,0,0,8058,0,153,0,
4.4800,1372.8,116.4,1469.7,-1056.9,499.8,174.6,-466.8,0,0,8064,0,154,0,
4.4833,1365.9,118.2,1479.6,-1055.4,499.2,168.9,-475.2,0,0,8070,0,155,0,
4.4867,1362.6,112.8,1469.7,-1052.7,499.8,166.2,-479.4,0,0,8076,0,156,0,
4.4900,1360.2,112.8,1468.5,-1057.8,497.4,168.3,-478.5,0,0,8082,0,157,0,
4.4933,1364.4,119.4,1464.6,-1051.8,501.9,173.1,-469.2,0,0,8088,0,158,0,
4.4967,1367.1,120.3,1462.5,-1050.3,500.7,167.7,-472.2,0,0,8094,0,159,0,
4.5000,1363.2,126.0,1464.0,-1048.8,502.2,170.7,-469.8,0,0,8100,0,160,0,
4.5033,1362.3,124.5,1465.5,-1052.1,500.7,168.0,-474.6,0,0,8106,0,161,0,
4.5067,1351.2,112.5,1460.4,-1060.8,494.1,161.4,-484.8,0,0,8112,0,162,0,
4.5100,1358.1,115.5,1466.7,-1055.1,498.3,169.5,-471.9,0,0,8118,0,163,0,
4.5133,1369.5,123.3,1468.5,-1051.2,502.5,170.7,-466.5,0,0,8124,0,164,0,
4.5167,1360.5,116.1,1465.2,-1048.5,502.5,162.3,-475.8,0,0,8130,0,165,0,
4.5200,1365.3,113.7,1462.2,-1052.7,505.5,163.8,-474.9,0,0,8136,0,166,0,
4.5233,1368.3,122.7,1473.3,-1048.5,508.5,170.7,-471.9,0,0,8142,0,167,0,
4.5267,1369.5,127.2,1475.7,-1043.1,510.0,175.8,-465.0,0,0,8148,0,168,0,
4.5300,1359.9,119.1,1470.9,-1046.1,505.5,181.8,-464.1,0,0,8154,0,169,0,
4.5333,1380.6,133.2,1476.6,-1044.6,511.2,185.1,-451.5,0,0,8160,0,170,0,
4.5367,1374.0,136.5,1478.4,-1041.9,513.3,182.1,-450.0,0,0,8166,0,171,0,
4.5400,1383.9,138.9,1494.9,-1029.0,518.7,188.1,-446.4,0,0,8172,0,172,0,
4.5433,1389.6,146.1,1497.0,-1021.5,526.5,195.6,-444.0,0,0,8178,0,173,0,
4.5467,1383.9,150.0,1504.8,-1020.6,531.6,201.0,-440.1,0,0,8184,0,174,0,
4.5500,1386.9,152.4,1502.4,-1023.3,527.4,200.4,-438.9,0,0,8190,0,175,0,
4.5533,1376.7,139.5,1486.2,-1025.4,523.2,190.2,-447.3,0,0,8196,0,176,0,
4.5567,1374.0,132.9,1482.0,-1030.8,522.0,186.3,-458.1,0,0,8202,0,177,0,
4.5600,1374.6,132.9,1489.8,-1023.9,523.2,194.1,-460.8,0,0,8208,0,178,0,
4.5633,1380.9,142.5,1488.3,-1032.6,519.9,189.9,-454.8,0,0,8214,0,179,0,
4.5667,1390.8,149.4,1493.1,-1027.8,524.7,186.9,-449.4,0,0,8220,0,180,0,
4.5700,1389.9,144.9,1489.8,-1028.1,527.4,186.0,-447.9,0,0,8226,0,181,0,
4.5733,1384.2,142.2,1492.5,-1027.5,522.0,178.5,-452.7,0,0,8232,0,182,0,
4.5767,1362.9,120.9,1475.4,-1041.6,513.9,174.0,-477.9,0,0,8238,0,183,0,
4.5800,1370.1,120.6,1480.5,-1040.4,513.3,177.0,-462.3,0,0,8244,0,184,0,
4.5833,1366.8,117.0,1476.6,-1042.5,502.5,176.4,-474.0,0,0,8250,0,185,0,
4.5867,1367.7,116.4,1473.6,-1046.4,501.6,170.1,-474.9,0,0,8256,0,186,0,
4.5900,1362.3,111.3,1467.6,-1053.0,502.8,173.4,-474.6,0,0,8262,0,187,0,
4.5933,1367.7,118.5,1484.4,-1045.2,512.1,176.7,-468.9,0,0,8268,0,188,0,
4.5967,1366.5,114.0,1476.6,-1047.0,504.9,172.2,-472.2,0,0,8274,0,189,0,
4.6000,1361.1,116.7,1463.4,-1051.2,499.5,168.0,-474.0,0,0,8280,0,190,0,
4.6033,1376.1,128.4,1476.6,-1046.1,507.0,178.2,-463.5,0,0,8286,0,191,0,
4.6067,1371.0,123.9,1473.3,-1046.1,504.9,175.8,-466.5,0,0,8292,0,192,0,
4.6100,1368.9,119.4,1463.1,-1051.8,505.5,174.9,-466.8,0,0,8298,0,193,0,
4.6133,1368.3,119.7,1465.5,-1053.9,505.2,175.8,-467.1,0,0,8304,0,194,0,
4.6167,1376.1,121.8,1465.5,-1047.9,511.8,184.2,-460.8,0,0,8310,0,195,0,
4.6200,1367.4,115.5,1470.9,-1044.0,515.1,174.6,-465.3,0,0,8316,0,196,0,
4.6233,1371.3,117.0,1471.8,-1049.4,513.3,174.0,-464.1,0,0,8322,0,197,0,
4.6267,1362.9,111.9,1461.0,-1050.6,507.3,162.9,-474.3,0,0,8328,0,198,0,
4.6300,1362.0,106.5,1463.4,-1050.9,504.9,166.2,-471.6,0,0,8334,0,199,0,
4.6333,1366.5,112.8,1460.1,-1054.8,507.9,183.3,-468.0,0,0,8340,0,200,0,
4.6367,1367.1,117.0,1462.2,-1048.8,510.3,188.4,-463.2,0,0,8346,0,201,0,
4.6400,1380.0,118.2,1474.8,-1044.9,511.2,186.6,-454.5,0,0,8352,0,202,0,
4.6433,1368.3,118.2,1465.2,-1047.0,509.1,174.6,-464.7,0,0,8358,0,203,0,
4.6467,1366.8,119.1,1467.9,-1042.5,513.6,176.7,-462.3,0,0,8364,0,204,0,
4.6500,1369.8,121.5,1487.7,-1041.0,516.9,177.6,-463.8,0,0,8370,0,205,0,
4.6533,1380.3,113.1,1480.8,-1044.0,513.6,176.7,-460.2,0,0,8376,0,206,0,
4.6567,1373.1,117.9,1474.2,-1047.6,515.7,174.3,-463.8,0,0,8382,0,207,0,
4.6600,1378.8,119.1,1474.2,-1042.2,517.2,177.3,-457.2,0,0,8388,0,208,0,
4.6633,1381.2,120.6,1470.6,-1035.6,528.9,185.4,-457.2,0,0,8394,0,209,0,
4.6667,1387.5,130.2,1485.6,-1028.4,533.7,186.9,-448.5,0,0,8400,0,210,0,
4.6700,1396.5,134.4,1494.0,-1024.5,543.0,195.9,-441.0,0,0,8406,0,211,0,
4.6733,1398.0,140.1,1501.5,-1026.0,539.4,192.6,-437.1,0,0,8412,0,212,0,
4.6767,1394.4,141.9,1508.7,-1016.1,538.2,194.4,-442.2,0,0,8418,0,213,0,
4.6800,1394.7,136.2,1504.2,-1017.9,535.8,192.3,-444.0,0,0,8424,0,214,0,
4.6833,1386.9,132.3,1497.9,-1026.9,534.3,191.7,-440.4,0,0,8430,0,215,0,
4.6867,1384.8,127.2,1507.8,-1023.9,533.1,189.6,-443.7,0,0,8436,0,216,0,
4.6900,1388.7,128.4,1503.3,-1020.3,541.2,197.7,-439.8,0,0,8442,0,217,0,
4.6933,1401.9,141.3,1512.9,-1013.1,542.4,200.7,-440.1,0,0,8448,0,218,0,
4.6967,1389.9,128.7,1503.9,-1017.3,539.4,191.7,-449.4,0,0,8454,0,219,0,
4.7000,1400.1,138.9,1503.0,-1015.2,537.3,193.5,-447.0,0,0,8460,0,220,0,
4.7033,1393.5,135.0,1504.5,-1017.9,534.6,186.9,-451.5,0,0,8466,0,221,0,
4.7067,1387.5,130.5,1501.8,-1020.3,529.8,185.7,-452.4,0,0,8472,0,222,0,
4.7100,1378.5,119.1,1486.5,-1027.2,526.5,180.6,-458.1,0,0,8478,0,223,0,
4.7133,1380.9,120.3,1486.8,-1030.8,525.3,179.1,-459.6,0,0,8484,0,224,0,
4.7167,1376.1,117.6,1497.6,-1024.5,525.6,183.0,-461.4,0,0,8490,0,225,0,
4.7200,1389.3,131.4,1495.8,-1023.6,531.9,190.2,-448.8,0,0,8496,0,226,0,
4.7233,1386.0,137.1,1493.1,-1021.8,531.6,192.3,-459.6,0,0,8502,0,227,0,
4.7267,1391.1,134.4,1500.3,-1024.5,530.4,186.3,-451.2,0,0,8508,0,228,0,
4.7300,1391.4,130.8,1501.5,-1023.6,529.2,186.3,-451.8,0,0,8514,0,229,0,
4.7333,1380.3,121.8,1500.0,-1026.9,525.6,176.1,-464.7,0,0,8520,0,230,0,
4.7367,1383.6,128.4,1495.8,-1021.2,529.5,189.6,-456.9,0,0,8526,0,231,0,
4.7400,1386.3,132.0,1497.3,-1021.8,531.9,193.8,-450.0,0,0,8532,0,232,0,
4.7433,1386.0,128.7,1500.0,-1024.5,533.4,185.1,-453.3,0,0,8538,0,233,0,
4.7467,1382.1,120.0,1498.2,-1026.3,530.7,183.6,-453.0,0,0,8544,0,234,0,
4.7500,1394.1,124.2,1503.3,-1017.9,535.5,191.1,-445.5,0,0,8550,0,235,0,
4.7533,1391.7,130.8,1508.7,-1016.7,542.7,203.4,-442.2,0,0,8556,0,236,0,
4.7567,1390.5,137.1,1510.2,-1016.4,541.8,199.8,-446.7,0,0,8562,0,237,0,
4.7600,1382.7,131.4,1508.1,-1016.1,543.0,192.6,-446.4,0,0,8568,0,238,0,
4.7633,1391.1,127.5,1503.0,-1017.6,544.2,197.4,-441.9,0,0,8574,0,239,0,
4.7667,1392.6,129.9,1504.2,-1007.7,546.6,204.6,-434.7,0,0,8580,0,240,0,
4.7700,1393.8,134.4,1512.0,-1011.3,541.5,195.3,-441.0,0,0,8586,0,241,0,
4.7733,1394.1,131.4,1502.4,-1014.9,543.0,193.2,-444.3,0,0,8592,0,242,0,
4.7767,1389.0,123.3,1498.2,-1019.4,538.8,190.5,-447.3,0,0,8598,0,243,0,
4.7800,1391.1,117.3,1504.5,-1014.9,536.7,195.0,-447.0,0,0,8604,0,244,0,
4.7833,1386.9,114.3,1495.2,-1020.0,535.5,199.2,-441.0,0,0,8610,0,245,0,
4.7867,1392.6,128.4,1494.9,-1016.7,540.9,200.1,-430.8,0,0,8616,0,246,0,
4.7900,1386.0,118.2,1496.1,-1016.1,538.2,190.8,-441.9,0,0,8622,0,247,0,
4.7933,1389.9,121.2,1485.9,-1025.7,538.2,193.2,-439.8,0,0,8628,0,248,0,
4.7967,1392.3,137.1,1496.4,-1012.8,545.4,203.7,-427.2,0,0,8634,0,249,0,
4.8000,1408.5,144.0,1513.2,-1006.2,551.7,210.3,-420.9,0,0,8640,0,250,0,
4.8033,1408.8,140.7,1512.9,-1005.0,555.0,214.5,-422.4,0,0,8646,0,251,0,
4.8067,1397.1,133.5,1509.0,-1011.6,546.6,208.5,-429.9,0,0,8652,0,252,0,
4.8100,1385.4,126.0,1496.7,-1018.2,545.1,207.0,-430.2,0,0,8658,0,253,0,
4.8133,1399.2,135.6,1494.6,-1012.5,548.4,206.7,-424.5,0,0,8664,0,254,0,
4.8167,1396.8,130.5,1491.3,-1013.1,548.1,202.8,-426.0,0,0,8670,0,255,0,
4.8200,1395.3,132.9,1493.7,-1013.7,549.6,206.1,-428.1,0,0,8676,0,0,0,
4.8233,1386.9,124.5,1483.8,-1018.5,540.3,198.6,-433.8,0,0,8682,0,1,0,
4.8267,1388.7,131.7,1494.0,-1006.2,544.5,198.0,-432.3,0,0,8688,0,2,0,
4.8300,1384.5,124.2,1478.1,-1017.3,539.1,199.2,-435.3,0,0,8694,0,3,0,
4.8333,1380.6,125.7,1477.2,-1020.9,536.7,200.7,-435.9,0,0,8700,0,4,0,
4.8367,1393.2,118.8,1474.2,-1020.9,536.1,203.4,-432.3,0,0,8706,0,5,0,
4.8400,1386.0,117.0,1473.3,-1021.2,538.8,189.0,-431.1,0,0,8712,0,6,0,
4.8433,1378.2,111.6,1473.6,-1022.1,539.4,193.2,-446.7,0,0,8718,0,7,0,
4.8467,1386.0,117.3,1490.1,-1019.7,544.2,187.5,-441.9,0,0,8724,0,8,0,
4.8500,1389.6,120.3,1487.7,-1020.6,541.2,202.8,-429.6,0,0,8730,0,9,0,
4.8533,1390.5,122.7,1483.2,-1020.0,544.8,203.1,-430.5,0,0,8736,0,10,0,
4.8567,1390.8,121.8,1488.9,-1011.0,543.9,203.7,-435.3,0,0,8742,0,11,0,
4.8600,1398.3,123.9,1488.9,-1010.7,540.3,201.0,-424.2,0,0,8748,0,12,0,
4.8633,1395.9,129.0,1481.4,-1010.4,545.4,204.3,-423.6,0,0,8754,0,13,0,
4.8667,1386.3,118.2,1478.1,-1017.3,538.2,194.7,-438.6,0,0,8760,0,14,0,
4.8700,1395.3,129.6,1484.4,-1012.2,536.1,199.8,-429.9,0,0,8766,0,15,0,
4.8733,1401.0,132.3,1483.8,-1004.4,543.6,213.9,-426.9,0,0,8772,0,16,0,
4.8767,1379.1,105.0,1477.8,-1015.8,537.0,205.8,-435.6,0,0,8778,0,17,0,
4.8800,1383.9,110.1,1485.3,-1015.2,534.9,195.6,-445.2,0,0,8784,0,18,0,
4.8833,1378.5,124.2,1476.3,-1020.9,531.3,191.7,-446.4,0,0,8790,0,19,0,
4.8867,1395.9,135.6,1473.3,-1014.9,533.1,193.5,-432.3,0,0,8796,0,20,0,
4.8900,1392.6,131.7,1483.5,-1014.6,533.1,193.8,-435.0,0,0,8802,0,21,0,
4.8933,1392.0,127.2,1485.0,-1016.1,539.7,195.6,-433.2,0,0,8808,0,22,0,
4.8967,1382.1,127.8,1486.5,-1015.8,535.8,202.5,-437.7,0,0,8814,0,23,0,
4.9000,1380.9,132.9,1485.6,-1019.4,529.8,188.4,-446.4,0,0,8820,0,24,0,
4.9033,1377.3,126.0,1482.6,-1021.5,533.1,184.5,-446.4,0,0,8826,0,25,0,
4.9067,1382.7,132.0,1492.8,-1018.5,535.5,189.3,-439.8,0,0,8832,0,26,0,
4.9100,1384.2,127.5,1489.5,-1018.8,532.5,189.9,-445.8,0,0,8838,0,27,0,
4.9133,1388.1,134.1,1476.0,-1022.1,528.9,191.4,-445.5,0,0,8844,0,28,0,
4.9167,1386.0,137.7,1484.4,-1019.1,531.6,189.6,-447.3,0,0,8850,0,29,0,
4.9200,1384.8,122.7,1471.5,-1022.7,521.1,184.5,-457.5,0,0,8856,0,30,0,
4.9233,1375.5,114.6,1473.3,-1022.4,518.4,181.2,-455.4,0,0,8862,0,31,0,
4.9267,1372.5,120.0,1474.2,-1028.4,514.2,175.2,-459.3,0,0,8868,0,32,0,
4.9300,1378.2,120.9,1471.2,-1028.7,517.2,172.2,-452.7,0,0,8874,0,33,0,
4.9333,1369.8,109.5,1469.7,-1033.2,512.7,170.1,-465.6,0,0,8880,0,34,0,
4.9367,1369.5,96.0,1464.3,-1039.2,501.3,162.0,-471.3,0,0,8886,0,35,0,
4.9400,1359.9,94.5,1463.4,-1041.9,501.6,163.2,-477.9,0,0,8892,0,36,0,
4.9433,1368.9,106.5,1467.9,-1039.5,509.4,167.4,-468.3,0,0,8898,0,37,0,
4.9467,1367.7,105.0,1467.6,-1037.7,504.0,176.7,-474.3,0,0,8904,0,38,0,
4.9500,1365.0,107.4,1464.6,-1039.5,504.0,169.5,-470.1,0,0,8910,0,39,0,
4.9533,1364.4,102.9,1455.9,-1046.1,501.3,163.5,-483.3,0,0,8916,0,40,0,
4.9567,1368.9,100.2,1460.1,-1045.8,499.8,162.6,-480.9,0,0,8922,0,41,0,
4.9600,1360.2,93.9,1448.7,-1052.1,501.9,164.7,-481.5,0,0,8928,0,42,0,
4.9633,1349.7,84.3,1459.8,-1052.4,494.4,158.4,-492.6,0,0,8934,0,43,0,
4.9667,1355.7,88.5,1464.6,-1051.5,492.9,159.3,-491.4,0,0,8940,0,44,0,
4.9700,1344.9,82.8,1453.8,-1057.8,488.4,148.5,-494.4,0,0,8946,0,45,0,
4.9733,1349.1,84.9,1453.5,-1053.9,489.6,146.1,-489.3,0,0,8952,0,46,0,
4.9767,1347.6,75.0,1443.9,-1054.2,487.5,148.5,-493.2,0,0,8958,0,47,0,
4.9800,1346.4,72.9,1455.3,-1051.2,487.8,150.9,-486.6,0,0,8964,0,48,0,
4.9833,1342.2,63.0,1454.7,-1054.8,482.1,145.5,-496.8,0,0,8970,0,49,0,
4.9867,1344.0,65.1,1457.7,-1057.2,481.2,144.3,-494.7,0,0,8976,0,50,0,
4.9900,1335.0,63.3,1454.1,-1061.7,477.9,141.3,-495.9,0,0,8982,0,51,0,
4.9933,1324.8,55.8,1447.8,-1068.0,471.9,129.6,-503.1,0,0,8988,0,52,0,
4.9967,1333.5,63.9,1444.5,-1067.7,475.8,132.0,-503.7,0,0,8994,0,53,0,
5.0000,1335.6,71.4,1444.8,-1066.2,480.9,140.7,-497.7,0,0,9000,0,54,0,
5.0033,1336.2,77.1,1441.5,-1063.8,480.3,130.5,-498.3,0,0,9006,0,55,0,
5.0067,1332.3,78.6,1444.5,-1063.5,481.8,144.3,-496.2,0,0,9012,0,56,0,
5.0100,1348.2,79.5,1452.3,-1066.8,484.2,150.0,-489.9,0,0,9018,0,57,0,
5.0133,1342.8,72.3,1450.5,-1066.5,486.3,149.4,-492.0,0,0,9024,0,58,0,
5.0167,1343.4,71.7,1454.7,-1066.5,483.6,145.2,-498.3,0,0,9030,0,59,0,
5.0200,1347.0,68.7,1451.1,-1064.4,486.0,148.5,-492.0,0,0,9036,0,60,0,
5.0233,1348.2,69.0,1449.9,-1059.0,482.1,143.1,-495.3,0,0,9042,0,61,0,
5.0267,1341.9,60.3,1444.8,-1060.8,484.8,141.9,-501.9,0,0,9048,0,62,0,
5.0300,1340.7,66.0,1448.4,-1061.4,486.6,143.7,-507.0,0,0,9054,0,63,0,
5.0333,1343.4,62.1,1440.0,-1061.4,483.9,144.0,-502.8,0,0,9060,0,64,0,
5.0367,1339.8,53.1,1432.2,-1062.3,480.9,140.1,-510.3,0,0,9066,0,65,0,
5.0400,1340.1,62.1,1446.0,-1060.5,479.1,144.9,-510.0,0,0,9072,0,66,0,
5.0433,1345.5,68.7,1440.6,-1064.7,478.8,144.3,-500.4,0,0,9078,0,67,0,
5.0467,1342.5,67.5,1441.5,-1062.9,482.1,149.4,-503.7,0,0,9084,0,68,0,
5.0500,1335.9,57.9,1439.1,-1066.5,477.6,139.5,-509.7,0,0,9090,0,69,0,
5.0533,1335.6,57.6,1443.3,-1062.6,483.3,137.7,-510.9,0,0,9096,0,70,0,
5.0567,1339.8,67.2,1444.2,-1062.9,481.8,130.5,-505.8,0,0,9102,0,71,0,
5.0600,1337.7,69.6,1447.8,-1067.1,483.3,141.6,-504.3,0,0,9108,0,72,0,
5.0633,1338.9,62.1,1445.4,-1071.6,484.8,139.2,-508.2,0,0,9114,0,73,0,
5.0667,1331.4,57.9,1440.3,-1066.8,480.0,143.1,-516.3,0,0,9120,0,74,0,
5.0700,1323.0,58.5,1438.5,-1064.4,480.9,130.8,-528.6,0,0,9126,0,75,0,
5.0733,1339.5,60.0,1440.0,-1069.2,480.3,136.8,-521.1,0,0,9132,0,76,0,
5.0767,1326.6,50.4,1437.9,-1070.7,475.8,128.7,-521.4,0,0,9138,0,77,0,
5.0800,1344.6,60.0,1445.7,-1065.6,485.4,134.4,-516.6,0,0,9144,0,78,0,
5.0833,1332.6,60.0,1434.9,-1063.8,485.4,136.8,-509.7,0,0,9150,0,79,0,
5.0867,1338.6,59.7,1429.8,-1057.5,486.9,140.4,-511.5,0,0,9156,0,80,0,
5.0900,1340.1,71.1,1437.3,-1059.3,486.3,139.8,-507.0,0,0,9162,0,81,0,
5.0933,1336.8,69.9,1433.7,-1061.4,487.5,145.2,-506.4,0,0,9168,0,82,0,
5.0967,1343.4,64.8,1443.6,-1057.5,488.4,141.6,-508.5,0,0,9174,0,83,0,
5.1000,1329.0,52.5,1431.0,-1066.5,480.0,134.7,-515.1,0,0,9180,0,84,0,
5.1033,1327.5,47.4,1436.1,-1066.8,478.5,132.9,-518.7,0,0,9186,0,85,0,
5.1067,1335.0,45.9,1437.0,-1060.5,483.6,141.6,-515.4,0,0,9192,0,86,0,
5.1100,1344.6,55.8,1432.8,-1063.2,487.8,147.3,-506.4,0,0,9198,0,87,0,
5.1133,1344.3,61.2,1440.0,-1056.3,492.9,147.6,-505.2,0,0,9204,0,88,0,
5.1167,1337.1,58.2,1438.2,-1059.9,491.4,146.1,-513.9,0,0,9210,0,89,0,
5.1200,1336.2,54.3,1445.4,-1062.0,486.6,144.3,-517.8,0,0,9216,0,90,0,
5.1233,1333.2,53.4,1440.3,-1059.3,484.2,143.4,-512.1,0,0,9222,0,91,0,
5.1267,1338.0,54.3,1446.0,-1059.0,486.0,137.7,-515.4,0,0,9228,0,92,0,
5.1300,1319.4,40.2,1426.8,-1073.7,479.7,138.6,-522.9,0,0,9234,0,93,0,
5.1333,1315.8,38.7,1421.7,-1072.8,480.3,132.6,-524.1,0,0,9240,0,94,0,
5.1367,1322.4,46.5,1431.9,-1071.0,482.1,134.4,-521.4,0,0,9246,0,95,0,
5.1400,1326.6,56.4,1438.8,-1068.3,488.4,128.7,-519.0,0,0,9252,0,96,0,
5.1433,1332.0,62.4,1442.4,-1060.8,487.2,138.6,-512.7,0,0,9258,0,97,0,
5.1467,1340.1,54.9,1450.8,-1055.4,490.2,142.2,-507.6,0,0,9264,0,98,0,
5.1500,1334.1,51.6,1446.3,-1051.8,491.4,145.2,-508.5,0,0,9270,0,99,0,
5.1533,1335.3,53.7,1439.4,-1052.7,490.5,145.8,-507.6,0,0,9276,0,100,0,
5.1567,1327.5,53.7,1446.9,-1054.2,483.9,138.3,-508.8,0,0,9282,0,101,0,
5.1600,1326.3,53.7,1444.2,-1057.2,488.7,139.8,-506.1,0,0,9288,0,102,0,
5.1633,1331.7,61.5,1449.0,-1055.4,490.8,144.0,-508.8,0,0,9294,0,103,0,
5.1667,1336.2,60.3,1437.6,-1056.0,490.8,145.5,-504.3,0,0,9300,0,104,0,
5.1700,1330.2,57.6,1433.7,-1053.6,495.6,140.4,-504.3,0,0,9306,0,105,0,
5.1733,1324.2,42.6,1429.5,-1058.4,489.9,140.1,-509.7,0,0,9312,0,106,0,
5.1767,1326.0,49.5,1440.0,-1057.5,492.3,150.0,-502.2,0,0,9318,0,107,0,
5.1800,1329.3,54.0,1436.7,-1057.2,492.0,150.0,-503.7,0,0,9324,0,108,0,
5.1833,1333.8,54.0,1447.2,-1045.8,495.9,143.1,-502.8,0,0,9330,0,109,0,
5.1867,1344.9,69.9,1459.2,-1038.6,502.5,156.0,-493.2,0,0,9336,0,110,0,
5.1900,1345.2,66.9,1446.6,-1039.5,503.1,161.7,-489.6,0,0,9342,0,111,0,
5.1933,1344.3,67.5,1455.9,-1034.7,505.2,165.9,-492.6,0,0,9348,0,112,0,
5.1967,1342.8,61.8,1444.8,-1042.8,501.9,157.2,-493.2,0,0,9354,0,113,0,
5.2000,1345.5,70.5,1452.0,-1036.2,505.5,161.1,-483.0,0,0,9360,0,114,0,
5.2033,1341.9,74.7,1458.6,-1035.0,504.6,158.7,-487.2,0,0,9366,0,115,0,
5.2067,1349.4,76.8,1443.3,-1038.0,509.7,162.6,-487.5,0,0,9372,0,116,0,
5.2100,1348.8,76.5,1461.6,-1031.1,506.7,159.9,-489.6,0,0,9378,0,117,0,
5.2133,1350.9,80.4,1466.7,-1026.9,510.3,164.7,-478.5,0,0,9384,0,118,0,
5.2167,1353.9,76.2,1466.1,-1026.0,512.1,168.6,-480.0,0,0,9390,0,119,0,
5.2200,1351.8,69.3,1471.8,-1027.5,510.9,167.1,-480.6,0,0,9396,0,120,0,
5.2233,1358.7,80.7,1467.6,-1031.7,508.2,163.5,-475.2,0,0,9402,0,121,0,
5.2267,1348.8,73.2,1456.5,-1035.6,501.6,154.8,-481.5,0,0,9408,0,122,0,
5.2300,1349.4,78.0,1447.5,-1036.8,502.5,161.1,-483.6,0,0,9414,0,123,0,
5.2333,1352.7,80.1,1454.7,-1030.2,508.8,162.3,-480.6,0,0,9420,0,124,0,
5.2367,1354.8,78.0,1456.8,-1031.1,506.7,169.8,-478.5,0,0,9426,0,125,0,
5.2400,1346.7,62.1,1454.1,-1034.7,506.7,164.1,-485.1,0,0,9432,0,126,0,
5.2433,1356.0,69.9,1447.8,-1034.1,502.5,164.1,-478.8,0,0,9438,0,127,0,
5.2467,1357.8,79.5,1461.6,-1029.3,509.1,168.6,-476.4,0,0,9444,0,128,0,
5.2500,1356.3,76.5,1455.0,-1036.5,504.6,162.0,-486.3,0,0,9450,0,129,0,
5.2533,1350.3,75.6,1459.8,-1032.9,502.2,167.4,-487.5,0,0,9456,0,130,0,
5.2567,1358.7,81.0,1455.9,-1033.8,500.1,172.5,-489.9,0,0,9462,0,131,0,
5.2600,1365.3,91.5,1464.0,-1026.0,512.1,183.3,-477.9,0,0,9468,0,132,0,
5.2633,1357.5,74.4,1452.3,-1035.0,503.1,171.0,-486.0,0,0,9474,0,133,0,
5.2667,1355.4,72.9,1451.4,-1037.1,498.6,156.6,-490.2,0,0,9480,0,134,0,
5.2700,1354.8,63.0,1447.2,-1041.6,502.5,160.8,-497.4,0,0,9486,0,135,0,
5.2733,1354.8,71.7,1455.0,-1030.8,501.3,165.0,-490.2,0,0,9492,0,136,0,
5.2767,1359.9,77.4,1467.6,-1029.0,509.1,175.2,-480.9,0,0,9498,0,137,0,
5.2800,1357.5,70.8,1462.2,-1034.4,505.8,155.1,-485.4,0,0,9504,0,138,0,
5.2833,1361.1,71.1,1462.8,-1030.5,504.9,158.7,-494.1,0,0,9510,0,139,0,
5.2867,1356.3,71.4,1448.4,-1036.8,504.6,159.9,-490.5,0,0,9516,0,140,0,
5.2900,1354.5,72.9,1446.3,-1038.6,504.0,157.5,-496.8,0,0,9522,0,141,0,
5.2933,1353.0,66.9,1442.4,-1038.3,499.8,160.2,-497.1,0,0,9528,0,142,0,
5.2967,1354.5,61.2,1434.9,-1037.7,498.9,159.9,-496.2,0,0,9534,0,143,0,
5.3000,1356.6,61.2,1431.9,-1043.4,499.2,157.2,-503.1,0,0,9540,0,144,0,
5.3033,1361.7,68.7,1444.8,-1035.6,502.8,168.0,-498.3,0,0,9546,0,145,0,
5.3067,1365.0,68.7,1455.0,-1030.5,510.9,170.4,-492.6,0,0,9552,0,146,0,
5.3100,1363.8,69.0,1454.1,-1033.8,513.0,167.7,-491.7,0,0,9558,0,147,0,
5.3133,1369.5,64.8,1439.7,-1035.9,513.3,169.8,-489.0,0,0,9564,0,148,0,
5.3167,1360.2,71.1,1445.4,-1031.1,514.2,171.9,-487.8,0,0,9570,0,149,0,
5.3200,1369.5,67.5,1441.5,-1033.5,515.4,172.8,-484.8,0,0,9576,0,150,0,
5.3233,1357.8,61.2,1437.3,-1038.3,508.2,167.4,-487.8,0,0,9582,0,151,0,
5.3267,1348.5,60.3,1429.8,-1041.3,501.3,153.9,-498.9,0,0,9588,0,152,0,
5.3300,1335.6,47.1,1422.3,-1048.2,495.9,149.1,-502.8,0,0,9594,0,153,0,
5.3333,1344.6,51.9,1423.2,-1041.9,504.6,159.3,-495.9,0,0,9600,0,154,0,
5.3367,1345.5,53.1,1426.5,-1045.5,499.2,149.7,-488.1,0,0,9606,0,155,0,
5.3400,1341.6,46.2,1432.5,-1054.5,489.3,148.2,-498.3,0,0,9612,0,156,0,
5.3433,1329.3,39.9,1423.2,-1060.2,488.1,139.2,-504.6,0,0,9618,0,157,0,
5.3467,1337.4,49.8,1428.6,-1056.3,489.9,142.2,-498.0,0,0,9624,0,158,0,
5.3500,1347.0,56.7,1434.9,-1051.8,489.9,150.0,-490.2,0,0,9630,0,159,0,
5.3533,1345.5,54.6,1440.3,-1050.9,498.0,153.0,-492.6,0,0,9636,0,160,0,
5.3567,1347.3,56.7,1449.6,-1042.2,496.5,155.7,-494.4,0,0,9642,0,161,0,
5.3600,1357.2,60.6,1440.0,-1043.7,497.4,161.7,-485.7,0,0,9648,0,162,0,
5.3633,1358.7,61.5,1444.2,-1044.0,497.7,165.9,-482.1,0,0,9654,0,163,0,
5.3667,1356.6,59.1,1435.2,-1048.2,492.3,150.6,-484.5,0,0,9660,0,164,0,
5.3700,1343.4,53.7,1425.9,-1055.4,488.1,144.0,-498.3,0,0,9666,0,165,0,
5.3733,1352.4,63.6,1434.9,-1047.9,495.9,150.9,-486.6,0,0,9672,0,166,0,
5.3767,1361.7,73.8,1440.0,-1042.5,501.3,163.2,-473.7,0,0,9678,0,167,0,
5.3800,1363.2,72.9,1448.1,-1034.1,502.5,158.1,-473.1,0,0,9684,0,168,0,
5.3833,1357.5,72.0,1439.1,-1033.2,504.9,160.2,-477.9,0,0,9690,0,169,0,
5.3867,1373.1,81.9,1446.9,-1032.0,508.2,168.0,-463.8,0,0,9696,0,170,0,
5.3900,1372.8,74.7,1439.4,-1034.4,508.8,172.5,-464.7,0,0,9702,0,171,0,
5.3933,1365.0,71.7,1436.7,-1030.5,511.5,177.0,-462.9,0,0,9708,0,172,0,
5.3967,1367.1,75.0,1437.0,-1029.6,508.8,170.4,-466.8,0,0,9714,0,173,0,
5.4000,1369.8,73.8,1444.2,-1035.0,507.9,174.0,-464.4,0,0,9720,0,174,0,
5.4033,1362.9,75.3,1449.9,-1035.9,506.7,178.8,-474.3,0,0,9726,0,175,0,
5.4067,1367.4,81.6,1451.4,-1029.6,508.8,178.2,-467.7,0,0,9732,0,176,0,
5.4100,1369.5,86.1,1454.4,-1028.1,513.9,179.1,-459.3,0,0,9738,0,177,0,
5.4133,1378.5,84.9,1467.9,-1025.1,516.6,180.9,-451.5,0,0,9744,0,178,0,
5.4167,1365.0,82.8,1464.0,-1027.2,510.0,174.6,-457.5,0,0,9750,0,179,0,
5.4200,1371.0,86.7,1462.2,-1028.1,515.1,179.1,-457.8,0,0,9756,0,180,0,
5.4233,1375.5,94.2,1460.1,-1024.5,515.4,178.5,-459.0,0,0,9762,0,181,0,
5.4267,1370.7,84.6,1456.2,-1026.0,514.2,181.2,-464.7,0,0,9768,0,182,0,
5.4300,1361.1,74.4,1450.2,-1033.8,510.6,172.2,-472.8,0,0,9774,0,183,0,
5.4333,1356.9,70.2,1442.7,-1041.0,505.5,171.6,-471.3,0,0,9780,0,184,0,
5.4367,1351.5,56.1,1437.6,-1050.9,496.2,160.8,-480.9,0,0,9786,0,185,0,
5.4400,1340.4,48.6,1425.9,-1054.8,489.6,158.4,-478.2,0,0,9792,0,186,0,
5.4433,1337.4,52.8,1428.0,-1053.6,488.4,156.3,-485.4,0,0,9798,0,187,0,
5.4467,1343.1,56.7,1427.1,-1053.3,488.1,155.1,-486.0,0,0,9804,0,188,0,
5.4500,1338.9,54.3,1418.7,-1050.9,488.7,157.8,-483.6,0,0,9810,0,189,0,
5.4533,1341.3,51.0,1428.6,-1050.0,485.7,147.3,-490.8,0,0,9816,0,190,0,
5.4567,1334.4,43.8,1421.7,-1051.5,489.9,154.8,-491.1,0,0,9822,0,191,0,
5.4600,1350.3,56.1,1425.3,-1044.0,496.5,163.2,-480.3,0,0,9828,0,192,0,
5.4633,1352.4,60.6,1430.7,-1038.3,502.5,170.4,-474.9,0,0,9834,0,193,0,
5.4667,1354.2,66.0,1434.3,-1037.7,505.5,170.4,-465.9,0,0,9840,0,194,0,
5.4700,1355.4,68.4,1445.7,-1032.0,510.6,173.7,-469.8,0,0,9846,0,195,0,
5.4733,1359.9,78.9,1453.8,-1027.5,513.9,178.2,-467.7,0,0,9852,0,196,0,
5.4767,1359.3,79.5,1449.0,-1032.0,513.0,175.8,-461.1,0,0,9858,0,197,0,
5.4800,1350.6,58.5,1449.0,-1038.6,506.7,171.0,-471.6,0,0,9864,0,198,0,
5.4833,1348.5,59.7,1454.1,-1036.5,504.9,171.3,-475.2,0,0,9870,0,199,0,
5.4867,1353.6,68.7,1457.7,-1035.9,504.0,171.6,-468.9,0,0,9876,0,200,0,
5.4900,1362.0,71.4,1457.1,-1031.4,511.8,176.1,-462.6,0,0,9882,0,201,0,
5.4933,1365.3,80.4,1456.2,-1031.1,512.1,179.4,-460.2,0,0,9888,0,202,0,
5.4967,1365.0,81.0,1459.2,-1031.7,514.8,182.7,-456.0,0,0,9894,0,203,0,
5.5000,1362.3,77.4,1465.5,-1026.9,514.2,182.1,-458.7,0,0,9900,0,204,0,
5.5033,1366.2,64.5,1462.8,-1031.7,515.4,182.4,-460.8,0,0,9906,0,205,0,
5.5067,1363.2,71.1,1460.7,-1032.0,515.1,183.0,-456.9,0,0,9912,0,206,0,
5.5100,1361.7,78.9,1458.3,-1034.1,511.8,175.2,-453.3,0,0,9918,0,207,0,
5.5133,1359.3,69.6,1445.7,-1035.0,513.9,183.9,-461.4,0,0,9924,0,208,0,
5.5167,1354.8,69.0,1442.7,-1034.7,516.0,182.4,-459.3,0,0,9930,0,209,0,
5.5200,1358.4,64.8,1443.0,-1039.2,506.7,183.3,-457.5,0,0,9936,0,210,0,
