# Mains_Frequency_(Hz) =,60,,,,,,,,,,
# Sample_Frequency_(Hz) =,300,,,,,,,,,,
# Sensor_Data_Units =,uV,,,,,,,,,,
# Headset_Name =,DSI-7 SN:23,,,,,,,,,,
# Data_Logger =,DSI-Streamer-v.1.08.119,,,,,,,,,,
# Date =,2/21/2024,,,,,,,,,,
# Time =, 18:43:20.841 ,,,,,,,,,,
# Patient_ID =,X M 01-JAN-2000 X,,,,,,,,,,
# Record_ID =,Startdate 21-FEB-2024 EEG_XX X X,,,,,,,,,,
# EEG Filter Settings =,Non-Filtered,,,,,,,,,,
# Comments =,,,,,,,,,,,
# Reference location:,Pz,,,,,,,,,,
Time,LE,F4,C4,P4,P3,C3,F3,Pz,Trigger,Time_Offset,ADC_Status,ADC_Sequence,Event,Comments
0.0033,-254.4,-478.2,-299.7,-551.7,-466.2,-657.9,-1424.7,0,0,6,0,209,0,
0.0067,-261.6,-482.4,-285.0,-552.6,-470.4,-660.9,-1426.5,0,0,12,0,210,0,
0.0100,-270.3,-485.1,-287.1,-555.9,-469.8,-665.7,-1437.0,0,0,18,0,211,0,
0.0133,-265.8,-487.8,-295.5,-556.8,-468.0,-664.5,-1436.7,0,0,24,0,212,0,
0.0167,-265.2,-477.9,-290.7,-556.5,-467.1,-663.6,-1434.3,0,0,30,0,213,0,
0.0200,-264.3,-474.6,-291.6,-554.4,-462.3,-657.9,-1436.7,0,0,36,0,214,0,
0.0233,-265.2,-477.3,-296.7,-557.7,-465.9,-666.0,-1447.2,0,0,42,0,215,0,
0.0267,-265.5,-478.8,-297.6,-556.5,-463.5,-663.6,-1440.3,0,0,48,0,216,0,
0.0300,-261.0,-463.2,-294.0,-554.1,-463.8,-659.7,-1439.7,0,0,54,0,217,0,
0.0333,-267.6,-473.1,-288.9,-554.7,-464.1,-660.6,-1446.9,0,0,60,0,218,0,
0.0367,-262.5,-476.4,-290.7,-554.1,-467.4,-662.4,-1458.0,0,0,66,0,219,0,
0.0400,-257.4,-474.3,-286.5,-552.3,-463.2,-657.0,-1443.9,0,0,72,0,220,0,
0.0433,-267.6,-476.1,-283.8,-552.6,-467.7,-661.8,-1451.7,0,0,78,0,221,0,
0.0467,-265.5,-477.0,-299.1,-556.8,-465.6,-658.2,-1452.9,0,0,84,0,222,0,
0.0500,-270.0,-475.8,-293.1,-555.9,-460.5,-669.3,-1449.3,0,0,90,0,223,0,
0.0533,-278.1,-484.2,-303.3,-560.7,-446.1,-679.8,-1467.6,0,0,96,0,224,0,
0.0567,-250.5,-454.2,-276.3,-545.4,-471.3,-644.1,-1449.9,0,0,102,0,225,0,
0.0600,-259.8,-461.1,-289.2,-553.8,-464.4,-653.1,-1449.6,0,0,108,0,226,0,
0.0633,-259.5,-453.6,-281.7,-547.2,-461.4,-648.6,-1453.8,0,0,114,0,227,0,
0.0667,-271.5,-472.2,-288.6,-552.9,-461.1,-656.7,-1464.6,0,0,120,0,228,0,
0.0700,-260.7,-460.5,-288.0,-554.4,-464.1,-658.5,-1464.3,0,0,126,0,229,0,
0.0733,-264.3,-461.1,-281.4,-555.0,-462.3,-655.8,-1473.0,0,0,132,0,230,0,
0.0767,-266.1,-465.6,-285.9,-553.5,-459.6,-663.6,-1478.4,0,0,138,0,231,0,
0.0800,-274.5,-466.2,-283.5,-555.9,-457.2,-642.0,-1474.8,0,0,144,0,232,0,
0.0833,-263.7,-462.0,-285.3,-553.5,-464.4,-663.6,-1472.4,0,0,150,0,233,0,
0.0867,-262.5,-453.9,-292.2,-552.0,-457.8,-649.5,-1464.3,0,0,156,0,234,0,
0.0900,-262.2,-452.7,-285.3,-551.4,-460.8,-654.3,-1467.9,0,0,162,0,235,0,
0.0933,-265.5,-450.6,-278.1,-549.3,-460.5,-651.3,-1470.9,0,0,168,0,236,0,
0.0967,-265.5,-448.5,-285.9,-551.7,-463.5,-659.1,-1478.4,0,0,174,0,237,0,
0.1000,-266.4,-456.6,-290.4,-551.4,-456.9,-651.9,-1485.9,0,0,180,0,238,0,
0.1033,-260.7,-450.9,-281.7,-551.7,-458.4,-651.3,-1478.4,0,0,186,0,239,0,
0.1067,-266.1,-457.2,-287.1,-550.5,-459.0,-655.2,-1482.0,0,0,192,0,240,0,
0.1100,-273.9,-456.0,-291.9,-553.5,-454.2,-660.0,-1493.7,0,0,198,0,241,0,
0.1133,-270.9,-455.4,-291.6,-555.3,-438.9,-662.7,-1493.4,0,0,204,0,242,0,
0.1167,-251.4,-430.2,-269.1,-543.6,-470.1,-637.2,-1479.9,0,0,210,0,243,0,
0.1200,-259.2,-436.5,-277.8,-543.6,-455.7,-651.0,-1495.8,0,0,216,0,244,0,
0.1233,-261.9,-439.8,-278.7,-544.8,-458.7,-648.3,-1495.8,0,0,222,0,245,0,
0.1267,-261.6,-441.0,-279.3,-546.3,-455.4,-648.6,-1500.3,0,0,228,0,246,0,
0.1300,-262.2,-435.3,-279.6,-548.4,-458.4,-650.4,-1508.1,0,0,234,0,247,0,
0.1333,-262.5,-433.5,-271.8,-544.8,-455.1,-653.1,-1509.9,0,0,240,0,248,0,
0.1367,-256.5,-438.3,-278.7,-545.4,-456.6,-648.3,-1498.2,0,0,246,0,249,0,
0.1400,-264.0,-439.5,-273.6,-546.3,-453.0,-650.7,-1506.6,0,0,252,0,250,0,
0.1433,-268.2,-440.1,-274.8,-549.6,-453.6,-646.2,-1512.6,0,0,258,0,251,0,
0.1467,-264.9,-449.1,-278.1,-548.4,-458.7,-661.5,-1519.2,0,0,264,0,252,0,
0.1500,-267.3,-438.9,-284.7,-546.6,-455.1,-656.4,-1518.3,0,0,270,0,253,0,
0.1533,-253.5,-436.8,-279.9,-545.1,-451.5,-646.2,-1508.7,0,0,276,0,254,0,
0.1567,-255.0,-437.4,-278.1,-549.0,-450.6,-647.1,-1508.1,0,0,282,0,255,0,
0.1600,-262.5,-446.7,-280.5,-547.2,-454.8,-652.8,-1525.2,0,0,288,0,0,0,
0.1633,-257.1,-434.1,-285.9,-546.9,-456.3,-648.0,-1514.1,0,0,294,0,1,0,
0.1667,-267.3,-440.1,-283.5,-550.2,-457.5,-652.8,-1528.5,0,0,300,0,2,0,
0.1700,-255.3,-437.1,-287.1,-548.7,-456.3,-644.7,-1520.7,0,0,306,0,3,0,
0.1733,-261.3,-445.5,-278.7,-550.2,-458.4,-645.6,-1522.5,0,0,312,0,4,0,
0.1767,-268.8,-447.3,-284.4,-546.3,-450.3,-655.5,-1530.0,0,0,318,0,5,0,
0.1800,-263.7,-438.6,-283.5,-549.0,-442.2,-662.7,-1542.6,0,0,324,0,6,0,
0.1833,-250.2,-426.0,-275.4,-538.2,-469.8,-634.2,-1515.0,0,0,330,0,7,0,
0.1867,-260.1,-437.7,-280.8,-542.1,-450.9,-648.0,-1527.9,0,0,336,0,8,0,
0.1900,-256.2,-440.4,-282.9,-546.6,-459.0,-647.7,-1525.5,0,0,342,0,9,0,
0.1933,-259.2,-440.1,-280.2,-546.6,-453.9,-650.7,-1541.1,0,0,348,0,10,0,
0.1967,-268.2,-437.7,-277.5,-546.0,-457.8,-649.5,-1544.1,0,0,354,0,11,0,
0.2000,-259.8,-434.4,-278.4,-542.4,-456.9,-650.1,-1532.7,0,0,360,0,12,0,
0.2033,-264.3,-444.6,-287.7,-547.5,-457.5,-644.7,-1534.2,0,0,366,0,13,0,
0.2067,-260.7,-442.5,-284.1,-543.3,-456.0,-654.0,-1539.6,0,0,372,0,14,0,
0.2100,-261.9,-434.7,-284.7,-545.1,-453.0,-644.1,-1540.5,0,0,378,0,15,0,
0.2133,-260.7,-435.9,-282.6,-543.3,-455.1,-651.3,-1534.2,0,0,384,0,16,0,
0.2167,-260.7,-439.2,-288.6,-546.6,-455.1,-652.8,-1534.5,0,0,390,0,17,0,
0.2200,-257.7,-430.2,-283.8,-545.7,-452.4,-646.2,-1534.5,0,0,396,0,18,0,
0.2233,-260.1,-435.0,-291.0,-546.0,-452.7,-646.5,-1539.0,0,0,402,0,19,0,
0.2267,-253.8,-439.8,-290.1,-549.0,-454.2,-648.6,-1532.7,0,0,408,0,20,0,
0.2300,-256.5,-439.8,-285.3,-547.5,-450.6,-645.9,-1529.7,0,0,414,0,21,0,
0.2333,-254.7,-438.0,-281.7,-543.6,-452.7,-645.6,-1537.2,0,0,420,0,22,0,
0.2367,-245.7,-423.6,-277.5,-540.3,-448.5,-645.0,-1533.6,0,0,426,0,23,0,
0.2400,-259.2,-428.4,-274.5,-539.4,-448.8,-644.7,-1552.5,0,0,432,0,24,0,
0.2433,-259.8,-423.6,-277.8,-541.5,-450.3,-638.7,-1542.0,0,0,438,0,25,0,
0.2467,-250.8,-429.6,-277.5,-542.7,-454.5,-646.5,-1540.5,0,0,444,0,26,0,
0.2500,-249.9,-435.0,-276.9,-543.0,-453.0,-652.2,-1553.7,0,0,450,0,27,0,
0.2533,-245.7,-432.0,-273.6,-537.6,-450.6,-640.5,-1546.2,0,0,456,0,28,0,
0.2567,-264.3,-431.4,-282.9,-547.2,-430.8,-660.6,-1556.7,0,0,462,0,29,0,
0.2600,-254.1,-419.1,-278.1,-539.7,-449.7,-639.3,-1550.4,0,0,468,0,30,0,
0.2633,-254.1,-421.5,-275.7,-541.8,-459.6,-633.9,-1550.1,0,0,474,0,31,0,
0.2667,-254.4,-427.2,-282.0,-542.1,-450.3,-641.4,-1555.5,0,0,480,0,32,0,
0.2700,-260.4,-435.6,-273.3,-540.0,-451.2,-644.1,-1557.9,0,0,486,0,33,0,
0.2733,-255.3,-418.8,-271.5,-539.1,-448.2,-633.9,-1551.6,0,0,492,0,34,0,
0.2767,-257.4,-422.4,-288.3,-546.6,-451.2,-645.6,-1559.7,0,0,498,0,35,0,
0.2800,-268.5,-432.3,-284.4,-550.2,-456.6,-645.3,-1565.4,0,0,504,0,36,0,
0.2833,-263.7,-436.5,-284.4,-549.9,-454.2,-645.0,-1559.4,0,0,510,0,37,0,
0.2867,-263.7,-428.4,-286.5,-548.1,-455.7,-641.7,-1559.1,0,0,516,0,38,0,
0.2900,-269.7,-431.7,-288.0,-549.3,-455.4,-650.7,-1568.4,0,0,522,0,39,0,
0.2933,-267.9,-426.0,-285.0,-550.8,-456.6,-643.2,-1578.0,0,0,528,0,40,0,
0.2967,-258.3,-417.3,-276.3,-547.5,-459.3,-644.7,-1575.3,0,0,534,0,41,0,
0.3000,-267.3,-428.1,-283.5,-546.9,-461.1,-647.1,-1582.2,0,0,540,0,42,0,
0.3033,-267.6,-419.4,-278.1,-544.2,-457.2,-646.2,-1577.4,0,0,546,0,43,0,
0.3067,-269.7,-426.0,-278.4,-548.4,-462.9,-649.2,-1576.5,0,0,552,0,44,0,
0.3100,-270.0,-426.6,-285.6,-553.2,-465.6,-654.3,-1590.3,0,0,558,0,45,0,
0.3133,-275.1,-432.3,-285.0,-551.7,-463.8,-651.3,-1585.5,0,0,564,0,46,0,
0.3167,-267.6,-430.5,-295.8,-548.7,-468.9,-657.9,-1591.2,0,0,570,0,47,0,
0.3200,-275.1,-429.0,-297.0,-552.3,-445.8,-670.8,-1594.5,0,0,576,0,48,0,
0.3233,-268.2,-424.8,-285.0,-549.3,-468.9,-648.6,-1589.7,0,0,582,0,49,0,
0.3267,-264.9,-428.4,-281.7,-550.8,-477.0,-646.5,-1578.9,0,0,588,0,50,0,
0.3300,-265.5,-425.7,-285.3,-551.4,-467.1,-648.6,-1582.2,0,0,594,0,51,0,
0.3333,-266.1,-415.8,-279.3,-546.0,-461.1,-649.5,-1589.1,0,0,600,0,52,0,
0.3367,-264.6,-410.1,-276.3,-546.0,-463.2,-656.7,-1588.8,0,0,606,0,53,0,
0.3400,-272.4,-418.8,-276.6,-549.6,-464.7,-659.4,-1602.9,0,0,612,0,54,0,
0.3433,-261.9,-423.6,-281.7,-550.5,-461.1,-651.6,-1589.7,0,0,618,0,55,0,
0.3467,-263.1,-418.8,-275.7,-549.9,-459.3,-656.1,-1593.3,0,0,624,0,56,0,
0.3500,-258.6,-409.5,-271.2,-545.4,-460.8,-654.9,-1586.7,0,0,630,0,57,0,
0.3533,-255.3,-411.3,-276.6,-543.9,-458.7,-653.7,-1593.0,0,0,636,0,58,0,
0.3567,-256.5,-406.2,-277.8,-543.3,-457.5,-653.7,-1587.9,0,0,642,0,59,0,
0.3600,-258.9,-412.5,-276.0,-545.1,-461.7,-654.3,-1590.6,0,0,648,0,60,0,
0.3633,-256.8,-406.8,-275.4,-545.7,-459.0,-652.5,-1593.9,0,0,654,0,61,0,
0.3667,-260.1,-408.3,-274.8,-545.4,-457.8,-648.9,-1590.3,0,0,660,0,62,0,
0.3700,-256.2,-406.8,-281.1,-545.7,-455.4,-647.1,-1601.1,0,0,666,0,63,0,
0.3733,-251.1,-404.1,-279.0,-543.3,-452.1,-649.2,-1599.0,0,0,672,0,64,0,
0.3767,-255.0,-402.6,-282.3,-549.6,-461.1,-652.8,-1594.8,0,0,678,0,65,0,
0.3800,-260.7,-411.9,-284.7,-549.9,-458.4,-652.2,-1597.8,0,0,684,0,66,0,
0.3833,-255.0,-410.1,-282.9,-550.5,-456.9,-646.2,-1597.5,0,0,690,0,67,0,
0.3867,-258.6,-413.4,-285.6,-550.5,-460.5,-652.5,-1597.5,0,0,696,0,68,0,
0.3900,-255.3,-408.6,-267.6,-546.9,-456.3,-645.9,-1595.4,0,0,702,0,69,0,
0.3933,-252.6,-416.1,-286.5,-547.8,-454.2,-652.2,-1594.2,0,0,708,0,70,0,
0.3967,-253.2,-406.8,-281.7,-550.5,-458.4,-648.0,-1597.2,0,0,714,0,71,0,
0.4000,-250.5,-402.3,-273.0,-546.0,-457.2,-647.1,-1595.7,0,0,720,0,72,0,
0.4033,-253.2,-399.0,-274.8,-543.3,-455.1,-642.3,-1597.8,0,0,726,0,73,0,
0.4067,-248.7,-399.3,-269.7,-539.7,-458.1,-640.5,-1599.9,0,0,732,0,74,0,
0.4100,-255.3,-411.0,-276.0,-543.3,-456.0,-643.2,-1611.9,0,0,738,0,75,0,
0.4133,-248.7,-406.5,-277.5,-544.5,-454.8,-642.0,-1601.1,0,0,744,0,76,0,
0.4167,-265.5,-417.6,-292.2,-556.5,-444.3,-670.2,-1625.1,0,0,750,0,77,0,
0.4200,-241.8,-394.5,-269.4,-539.1,-462.6,-625.5,-1591.2,0,0,756,0,78,0,
0.4233,-245.1,-400.2,-275.1,-543.3,-459.6,-636.6,-1599.9,0,0,762,0,79,0,
0.4267,-254.4,-417.3,-281.7,-548.7,-464.1,-652.5,-1618.2,0,0,768,0,80,0,
0.4300,-249.9,-410.7,-277.2,-546.0,-461.1,-650.7,-1613.4,0,0,774,0,81,0,
0.4333,-255.9,-406.5,-290.7,-548.4,-458.4,-651.9,-1616.4,0,0,780,0,82,0,
0.4367,-259.2,-403.8,-288.0,-550.5,-460.2,-654.9,-1618.2,0,0,786,0,83,0,
0.4400,-261.9,-400.2,-279.0,-550.5,-456.6,-646.8,-1617.0,0,0,792,0,84,0,
0.4433,-250.2,-393.9,-277.2,-542.4,-454.5,-641.4,-1606.8,0,0,798,0,85,0,
0.4467,-251.1,-391.2,-272.7,-543.3,-452.7,-645.6,-1615.8,0,0,804,0,86,0,
0.4500,-243.9,-386.4,-275.4,-537.9,-451.8,-637.2,-1607.1,0,0,810,0,87,0,
0.4533,-246.0,-386.7,-273.3,-537.3,-450.3,-638.7,-1602.6,0,0,816,0,88,0,
0.4567,-246.3,-396.6,-275.1,-540.3,-453.6,-639.6,-1607.4,0,0,822,0,89,0,
0.4600,-251.4,-402.0,-280.8,-540.3,-455.1,-643.2,-1613.1,0,0,828,0,90,0,
0.4633,-247.8,-391.8,-277.2,-540.0,-454.8,-641.1,-1608.9,0,0,834,0,91,0,
0.4667,-247.8,-384.6,-278.7,-543.0,-456.6,-643.2,-1602.9,0,0,840,0,92,0,
0.4700,-245.4,-378.9,-267.6,-539.4,-452.1,-634.2,-1598.4,0,0,846,0,93,0,
0.4733,-246.3,-383.7,-275.1,-540.0,-455.7,-638.4,-1604.1,0,0,852,0,94,0,
0.4767,-251.4,-389.4,-282.3,-543.6,-456.6,-648.0,-1602.3,0,0,858,0,95,0,
0.4800,-246.6,-385.2,-285.3,-543.0,-452.7,-635.7,-1604.4,0,0,864,0,96,0,
0.4833,-247.8,-386.7,-282.0,-541.2,-456.6,-637.8,-1601.7,0,0,870,0,97,0,
0.4867,-255.0,-392.4,-285.0,-544.2,-444.0,-658.8,-1615.8,0,0,876,0,98,0,
0.4900,-254.4,-398.7,-280.8,-546.6,-448.2,-647.7,-1611.9,0,0,882,0,99,0,
0.4933,-246.0,-379.8,-269.1,-536.7,-471.6,-627.9,-1597.2,0,0,888,0,100,0,
0.4967,-251.1,-375.0,-274.5,-540.9,-457.8,-642.9,-1599.0,0,0,894,0,101,0,
0.5000,-248.4,-370.5,-273.9,-541.5,-456.3,-631.5,-1596.6,0,0,900,0,102,0,
0.5033,-252.3,-378.0,-279.0,-543.3,-457.8,-641.1,-1600.2,0,0,906,0,103,0,
0.5067,-250.2,-383.7,-277.2,-544.2,-456.0,-638.1,-1597.5,0,0,912,0,104,0,
0.5100,-246.9,-375.3,-270.3,-543.9,-459.6,-645.3,-1613.7,0,0,918,0,105,0,
0.5133,-247.2,-366.9,-279.3,-548.7,-456.9,-642.9,-1607.1,0,0,924,0,106,0,
0.5167,-250.5,-368.7,-277.5,-544.5,-462.3,-650.1,-1614.6,0,0,930,0,107,0,
0.5200,-252.9,-370.5,-272.1,-540.9,-453.6,-640.2,-1607.1,0,0,936,0,108,0,
0.5233,-255.3,-372.9,-279.3,-543.6,-456.6,-645.3,-1615.8,0,0,942,0,109,0,
0.5267,-247.2,-378.3,-280.2,-545.4,-455.4,-641.1,-1611.0,0,0,948,0,110,0,
0.5300,-249.0,-368.4,-273.3,-548.1,-455.7,-636.9,-1612.8,0,0,954,0,111,0,
0.5333,-246.9,-367.8,-273.3,-545.1,-453.6,-634.5,-1613.4,0,0,960,0,112,0,
0.5367,-243.9,-363.6,-273.9,-538.8,-454.2,-637.2,-1610.4,0,0,966,0,113,0,
0.5400,-243.6,-361.5,-272.7,-541.2,-456.3,-633.0,-1602.9,0,0,972,0,114,0,
0.5433,-240.6,-353.7,-268.8,-535.2,-452.1,-633.6,-1602.6,0,0,978,0,115,0,
0.5467,-249.9,-365.4,-271.2,-539.4,-455.7,-638.7,-1615.5,0,0,984,0,116,0,
0.5500,-252.3,-363.9,-269.7,-539.7,-455.7,-637.5,-1611.3,0,0,990,0,117,0,
0.5533,-253.5,-363.0,-277.5,-540.6,-457.5,-640.8,-1605.9,0,0,996,0,118,0,
0.5567,-258.3,-365.4,-292.2,-542.4,-450.0,-645.9,-1607.7,0,0,1002,0,119,0,
0.5600,-261.3,-381.3,-288.3,-546.9,-441.0,-654.6,-1613.7,0,0,1008,0,120,0,
0.5633,-243.6,-374.1,-276.3,-537.3,-468.6,-627.0,-1600.5,0,0,1014,0,121,0,
0.5667,-259.5,-368.4,-287.4,-542.1,-461.7,-641.1,-1613.7,0,0,1020,0,122,0,
0.5700,-254.7,-364.8,-283.2,-541.5,-460.2,-637.2,-1604.1,0,0,1026,0,123,0,
0.5733,-255.3,-365.1,-279.9,-542.7,-462.3,-643.2,-1613.7,0,0,1032,0,124,0,
0.5767,-257.4,-364.8,-276.0,-540.0,-457.2,-640.8,-1611.3,0,0,1038,0,125,0,
0.5800,-256.5,-372.6,-274.2,-543.0,-457.8,-644.7,-1611.6,0,0,1044,0,126,0,
0.5833,-254.4,-371.7,-274.8,-537.6,-456.3,-642.0,-1611.6,0,0,1050,0,127,0,
0.5867,-261.3,-370.5,-271.8,-538.8,-456.9,-639.6,-1608.6,0,0,1056,0,128,0,
0.5900,-254.1,-363.9,-264.3,-536.1,-456.3,-642.9,-1610.4,0,0,1062,0,129,0,
0.5933,-249.0,-353.7,-275.4,-540.6,-454.8,-639.6,-1616.4,0,0,1068,0,130,0,
0.5967,-244.5,-349.8,-270.9,-538.5,-450.0,-638.4,-1604.1,0,0,1074,0,131,0,
0.6000,-243.6,-348.9,-264.0,-533.4,-450.3,-639.0,-1602.9,0,0,1080,0,132,0,
0.6033,-243.3,-352.8,-265.5,-534.3,-451.2,-635.7,-1599.3,0,0,1086,0,133,0,
0.6067,-249.3,-358.8,-258.9,-539.7,-454.5,-641.1,-1606.8,0,0,1092,0,134,0,
0.6100,-248.1,-355.8,-261.6,-538.8,-450.3,-638.7,-1599.3,0,0,1098,0,135,0,
0.6133,-246.3,-351.0,-266.7,-541.8,-449.4,-633.3,-1597.2,0,0,1104,0,136,0,
0.6167,-240.9,-362.1,-268.5,-539.7,-450.3,-636.6,-1596.6,0,0,1110,0,137,0,
0.6200,-252.3,-356.7,-265.5,-537.3,-451.5,-639.3,-1594.5,0,0,1116,0,138,0,
0.6233,-247.8,-352.2,-261.3,-536.7,-454.2,-647.7,-1602.0,0,0,1122,0,139,0,
0.6267,-254.1,-349.2,-264.9,-539.1,-452.4,-636.6,-1608.6,0,0,1128,0,140,0,
0.6300,-242.7,-342.6,-261.9,-535.2,-449.7,-638.4,-1586.7,0,0,1134,0,141,0,
0.6333,-248.1,-342.3,-266.1,-534.9,-444.9,-641.4,-1588.8,0,0,1140,0,142,0,
0.6367,-250.8,-348.6,-273.0,-544.2,-426.3,-651.3,-1600.2,0,0,1146,0,143,0,
0.6400,-234.6,-332.1,-259.8,-537.0,-458.7,-624.0,-1583.4,0,0,1152,0,144,0,
0.6433,-240.3,-339.9,-262.5,-540.3,-452.7,-635.4,-1592.1,0,0,1158,0,145,0,
0.6467,-249.0,-345.3,-269.4,-543.0,-448.8,-636.9,-1591.5,0,0,1164,0,146,0,
0.6500,-245.1,-330.9,-259.8,-539.4,-446.1,-636.6,-1583.7,0,0,1170,0,147,0,
0.6533,-240.6,-328.5,-258.0,-534.6,-443.7,-632.4,-1573.8,0,0,1176,0,148,0,
0.6567,-244.8,-336.6,-265.8,-541.2,-443.7,-633.0,-1572.6,0,0,1182,0,149,0,
0.6600,-248.1,-336.0,-261.9,-539.1,-448.8,-638.4,-1581.0,0,0,1188,0,150,0,
0.6633,-258.0,-335.4,-254.7,-542.4,-448.8,-645.0,-1598.7,0,0,1194,0,151,0,
0.6667,-252.3,-337.2,-268.2,-539.7,-449.4,-646.5,-1589.4,0,0,1200,0,152,0,
0.6700,-245.4,-329.7,-267.3,-540.0,-444.3,-638.7,-1583.4,0,0,1206,0,153,0,
0.6733,-244.2,-329.7,-262.2,-541.8,-444.0,-642.6,-1575.0,0,0,1212,0,154,0,
0.6767,-250.2,-328.2,-262.5,-540.0,-448.8,-644.1,-1581.0,0,0,1218,0,155,0,
0.6800,-251.7,-327.3,-259.5,-537.0,-450.0,-648.6,-1578.9,0,0,1224,0,156,0,
0.6833,-255.3,-318.0,-254.4,-538.8,-449.7,-652.2,-1585.5,0,0,1230,0,157,0,
0.6867,-255.0,-317.7,-253.2,-534.3,-445.5,-645.6,-1585.2,0,0,1236,0,158,0,
0.6900,-257.4,-324.3,-255.9,-534.6,-448.2,-651.6,-1586.4,0,0,1242,0,159,0,
0.6933,-255.6,-322.8,-258.6,-539.1,-440.1,-634.8,-1583.4,0,0,1248,0,160,0,
0.6967,-252.6,-328.8,-255.9,-540.3,-442.5,-656.4,-1575.6,0,0,1254,0,161,0,
0.7000,-260.4,-338.4,-261.9,-539.7,-424.5,-657.9,-1585.2,0,0,1260,0,162,0,
0.7033,-237.9,-319.5,-253.5,-528.0,-458.1,-627.9,-1560.3,0,0,1266,0,163,0,
0.7067,-244.5,-321.9,-258.9,-532.8,-443.1,-631.8,-1560.3,0,0,1272,0,164,0,
0.7100,-249.0,-323.7,-260.7,-538.2,-450.9,-648.3,-1584.9,0,0,1278,0,165,0,
0.7133,-258.0,-328.2,-269.1,-539.4,-446.1,-641.7,-1565.4,0,0,1284,0,166,0,
0.7167,-248.4,-325.5,-260.7,-535.2,-445.5,-648.0,-1566.9,0,0,1290,0,167,0,
0.7200,-247.2,-321.0,-267.6,-533.4,-438.3,-636.0,-1563.6,0,0,1296,0,168,0,
0.7233,-246.0,-318.6,-266.4,-537.3,-440.7,-644.4,-1568.4,0,0,1302,0,169,0,
0.7267,-253.5,-323.1,-266.4,-541.8,-444.6,-647.1,-1576.8,0,0,1308,0,170,0,
0.7300,-255.6,-323.4,-268.2,-544.2,-450.9,-654.9,-1581.6,0,0,1314,0,171,0,
0.7333,-250.2,-318.9,-267.0,-539.4,-446.1,-647.1,-1566.9,0,0,1320,0,172,0,
0.7367,-255.3,-322.8,-260.1,-539.1,-449.1,-650.7,-1571.7,0,0,1326,0,173,0,
0.7400,-252.3,-327.3,-259.5,-542.4,-451.2,-654.0,-1580.1,0,0,1332,0,174,0,
0.7433,-248.4,-317.1,-253.8,-539.7,-448.2,-650.4,-1568.7,0,0,1338,0,175,0,
0.7467,-245.4,-309.3,-265.5,-543.0,-447.3,-647.7,-1559.7,0,0,1344,0,176,0,
0.7500,-243.0,-304.8,-253.5,-539.1,-444.9,-647.4,-1561.5,0,0,1350,0,177,0,
0.7533,-239.4,-316.2,-262.2,-537.3,-442.5,-640.8,-1555.8,0,0,1356,0,178,0,
0.7567,-251.1,-320.4,-262.8,-540.9,-446.1,-648.6,-1563.9,0,0,1362,0,179,0,
0.7600,-249.6,-327.9,-262.5,-540.9,-450.6,-650.1,-1561.8,0,0,1368,0,180,0,
0.7633,-252.3,-320.7,-267.9,-546.0,-456.3,-653.7,-1561.8,0,0,1374,0,181,0,
0.7667,-252.3,-323.1,-274.8,-545.7,-455.4,-652.5,-1560.0,0,0,1380,0,182,0,
0.7700,-253.2,-321.3,-267.0,-542.7,-455.1,-651.3,-1560.9,0,0,1386,0,183,0,
0.7733,-260.1,-337.8,-276.3,-550.2,-435.3,-664.5,-1566.6,0,0,1392,0,184,0,
0.7767,-257.4,-318.6,-264.3,-548.7,-450.6,-656.1,-1566.6,0,0,1398,0,185,0,
0.7800,-249.3,-311.4,-263.7,-540.3,-462.3,-627.6,-1544.7,0,0,1404,0,186,0,
0.7833,-248.4,-311.4,-270.0,-540.9,-453.3,-648.6,-1550.7,0,0,1410,0,187,0,
0.7867,-252.9,-317.4,-264.6,-543.6,-454.2,-645.3,-1558.2,0,0,1416,0,188,0,
0.7900,-246.9,-312.3,-263.7,-543.6,-453.9,-651.0,-1555.8,0,0,1422,0,189,0,
0.7933,-255.0,-318.9,-273.3,-547.8,-452.1,-639.3,-1561.8,0,0,1428,0,190,0,
0.7967,-250.8,-314.7,-263.1,-540.0,-456.3,-657.6,-1559.1,0,0,1434,0,191,0,
0.8000,-249.9,-315.0,-269.1,-542.1,-449.7,-643.2,-1568.4,0,0,1440,0,192,0,
0.8033,-238.8,-304.2,-274.5,-544.2,-448.5,-641.4,-1558.5,0,0,1446,0,193,0,
0.8067,-242.7,-301.8,-270.9,-541.5,-444.3,-638.4,-1549.2,0,0,1452,0,194,0,
0.8100,-238.8,-294.3,-268.2,-540.0,-444.6,-638.1,-1533.6,0,0,1458,0,195,0,
0.8133,-245.1,-301.8,-271.5,-539.4,-446.1,-645.9,-1546.8,0,0,1464,0,196,0,
0.8167,-246.3,-306.6,-269.4,-542.4,-447.0,-647.1,-1546.5,0,0,1470,0,197,0,
0.8200,-242.4,-304.8,-263.4,-537.9,-444.0,-642.3,-1539.6,0,0,1476,0,198,0,
0.8233,-242.4,-306.3,-274.2,-540.0,-446.4,-644.7,-1539.3,0,0,1482,0,199,0,
0.8267,-244.2,-297.0,-270.6,-540.6,-444.3,-636.6,-1533.9,0,0,1488,0,200,0,
0.8300,-249.6,-307.2,-275.1,-543.3,-446.4,-648.0,-1540.8,0,0,1494,0,201,0,
0.8333,-244.2,-295.8,-269.1,-541.2,-445.5,-645.6,-1527.9,0,0,1500,0,202,0,
0.8367,-251.7,-307.8,-278.1,-543.9,-428.1,-654.6,-1546.2,0,0,1506,0,203,0,
0.8400,-224.4,-280.5,-252.9,-529.2,-455.7,-620.1,-1521.0,0,0,1512,0,204,0,
0.8433,-239.1,-290.7,-260.1,-535.5,-446.4,-636.9,-1525.5,0,0,1518,0,205,0,
0.8467,-245.1,-294.9,-260.4,-537.6,-446.1,-635.7,-1530.3,0,0,1524,0,206,0,
0.8500,-236.7,-293.1,-261.3,-534.6,-443.4,-636.3,-1523.1,0,0,1530,0,207,0,
0.8533,-235.5,-293.7,-270.0,-540.3,-442.5,-633.3,-1518.3,0,0,1536,0,208,0,
0.8567,-242.1,-296.4,-269.4,-540.9,-442.2,-638.7,-1525.8,0,0,1542,0,209,0,
0.8600,-248.1,-301.2,-265.8,-537.9,-443.1,-640.2,-1525.5,0,0,1548,0,210,0,
0.8633,-240.0,-296.1,-272.1,-541.5,-440.4,-635.7,-1519.5,0,0,1554,0,211,0,
0.8667,-245.4,-297.0,-272.4,-545.7,-444.6,-645.9,-1529.7,0,0,1560,0,212,0,
0.8700,-240.0,-292.5,-268.5,-540.6,-438.9,-637.2,-1515.9,0,0,1566,0,213,0,
0.8733,-241.5,-295.8,-266.1,-541.5,-442.5,-639.3,-1509.0,0,0,1572,0,214,0,
0.8767,-245.1,-303.3,-268.8,-548.7,-446.4,-642.0,-1515.6,0,0,1578,0,215,0,
0.8800,-252.0,-305.1,-271.5,-551.7,-448.5,-648.9,-1525.2,0,0,1584,0,216,0,
0.8833,-243.3,-293.4,-272.7,-550.8,-451.8,-643.8,-1515.3,0,0,1590,0,217,0,
0.8867,-234.6,-287.1,-270.0,-544.2,-444.9,-641.4,-1515.0,0,0,1596,0,218,0,
0.8900,-241.8,-288.9,-266.4,-542.7,-444.9,-642.0,-1520.7,0,0,1602,0,219,0,
0.8933,-236.4,-295.5,-262.2,-538.8,-444.9,-643.2,-1518.6,0,0,1608,0,220,0,
0.8967,-250.2,-299.1,-276.0,-550.5,-443.1,-635.1,-1524.0,0,0,1614,0,221,0,
0.9000,-238.8,-291.9,-279.9,-543.3,-448.5,-642.6,-1508.7,0,0,1620,0,222,0,
0.9033,-246.9,-294.9,-277.5,-552.9,-426.9,-662.1,-1524.3,0,0,1626,0,223,0,
0.9067,-237.3,-289.2,-265.8,-542.7,-450.0,-638.1,-1513.5,0,0,1632,0,224,0,
0.9100,-231.9,-277.2,-264.6,-541.8,-453.3,-643.8,-1512.3,0,0,1638,0,225,0,
0.9133,-236.4,-280.2,-269.7,-544.2,-445.8,-642.6,-1509.6,0,0,1644,0,226,0,
0.9167,-241.5,-297.6,-273.9,-543.6,-449.1,-645.0,-1512.0,0,0,1650,0,227,0,
0.9200,-235.8,-292.8,-266.4,-538.8,-447.6,-646.8,-1508.1,0,0,1656,0,228,0,
0.9233,-240.6,-293.4,-269.1,-540.3,-444.3,-648.0,-1505.1,0,0,1662,0,229,0,
0.9267,-240.9,-295.2,-265.5,-540.0,-445.5,-647.4,-1509.3,0,0,1668,0,230,0,
0.9300,-242.7,-290.4,-267.6,-537.9,-443.7,-639.0,-1503.9,0,0,1674,0,231,0,
0.9333,-239.4,-285.3,-267.6,-540.0,-444.9,-643.2,-1505.4,0,0,1680,0,232,0,
0.9367,-243.6,-288.0,-267.3,-545.1,-447.3,-641.1,-1501.2,0,0,1686,0,233,0,
0.9400,-242.7,-289.8,-267.3,-543.9,-444.6,-639.3,-1504.2,0,0,1692,0,234,0,
0.9433,-246.0,-291.9,-279.6,-546.6,-446.7,-642.6,-1503.6,0,0,1698,0,235,0,
0.9467,-244.2,-282.6,-269.1,-544.8,-449.1,-641.7,-1502.4,0,0,1704,0,236,0,
0.9500,-243.0,-285.3,-272.1,-542.7,-446.4,-641.4,-1504.2,0,0,1710,0,237,0,
0.9533,-242.4,-287.4,-269.7,-541.2,-444.3,-637.8,-1506.0,0,0,1716,0,238,0,
0.9567,-248.1,-288.9,-264.9,-539.1,-445.5,-644.7,-1509.3,0,0,1722,0,239,0,
0.9600,-242.4,-276.9,-262.2,-534.9,-443.4,-639.3,-1499.1,0,0,1728,0,240,0,
0.9633,-243.6,-285.6,-274.2,-543.3,-447.0,-639.3,-1492.5,0,0,1734,0,241,0,
0.9667,-244.5,-292.2,-270.3,-539.1,-444.0,-637.5,-1506.0,0,0,1740,0,242,0,
0.9700,-244.8,-284.4,-276.6,-541.5,-443.1,-637.5,-1499.7,0,0,1746,0,243,0,
0.9733,-237.0,-273.3,-266.1,-539.1,-446.4,-637.5,-1494.9,0,0,1752,0,244,0,
0.9767,-260.7,-297.6,-282.3,-547.8,-432.3,-660.6,-1507.5,0,0,1758,0,245,0,
0.9800,-251.7,-290.4,-267.0,-537.6,-446.1,-642.9,-1496.4,0,0,1764,0,246,0,
0.9833,-237.3,-281.1,-275.7,-543.0,-460.5,-633.6,-1481.7,0,0,1770,0,247,0,
0.9867,-236.1,-272.7,-267.3,-538.5,-449.1,-639.0,-1478.7,0,0,1776,0,248,0,
0.9900,-240.6,-270.9,-267.9,-539.7,-452.1,-642.0,-1484.7,0,0,1782,0,249,0,
0.9933,-245.1,-274.2,-267.6,-538.8,-452.4,-643.5,-1492.2,0,0,1788,0,250,0,
0.9967,-252.9,-283.8,-271.2,-542.7,-454.5,-646.2,-1496.1,0,0,1794,0,251,0,
1.0000,-249.0,-276.0,-265.2,-539.1,-455.1,-649.5,-1492.2,0,0,1800,0,252,0,
1.0033,-249.6,-283.5,-272.7,-542.4,-447.3,-631.5,-1482.3,0,0,1806,0,253,0,
1.0067,-242.1,-276.6,-263.7,-542.1,-452.1,-647.4,-1475.4,0,0,1812,0,254,0,
1.0100,-253.5,-279.9,-269.7,-542.4,-449.1,-650.1,-1486.8,0,0,1818,0,255,0,
1.0133,-251.7,-277.2,-261.9,-540.6,-455.7,-648.0,-1479.0,0,0,1824,0,0,0,
1.0167,-242.4,-271.2,-269.1,-542.1,-447.6,-638.7,-1472.7,0,0,1830,0,1,0,
1.0200,-233.7,-267.0,-263.4,-531.3,-440.4,-637.2,-1476.9,0,0,1836,0,2,0,
1.0233,-247.5,-267.6,-265.2,-537.3,-441.0,-641.7,-1472.1,0,0,1842,0,3,0,
1.0267,-254.1,-272.4,-270.9,-539.1,-446.4,-643.5,-1470.3,0,0,1848,0,4,0,
1.0300,-241.5,-261.9,-264.9,-536.4,-445.2,-641.7,-1473.0,0,0,1854,0,5,0,
1.0333,-247.8,-270.3,-264.6,-539.4,-444.3,-644.1,-1476.9,0,0,1860,0,6,0,
1.0367,-242.4,-275.7,-265.5,-540.3,-449.1,-643.5,-1477.2,0,0,1866,0,7,0,
1.0400,-240.9,-255.0,-261.3,-538.2,-441.3,-634.5,-1465.8,0,0,1872,0,8,0,
1.0433,-237.9,-263.4,-259.8,-536.4,-439.8,-648.9,-1468.5,0,0,1878,0,9,0,
1.0467,-250.8,-279.0,-269.7,-544.8,-433.5,-659.7,-1479.9,0,0,1884,0,10,0,
1.0500,-229.5,-255.3,-255.0,-530.1,-457.2,-622.8,-1446.0,0,0,1890,0,11,0,
1.0533,-231.6,-253.5,-255.3,-534.9,-441.3,-630.6,-1457.7,0,0,1896,0,12,0,
1.0567,-239.1,-269.7,-260.1,-535.5,-444.6,-633.3,-1465.5,0,0,1902,0,13,0,
1.0600,-246.9,-274.2,-264.0,-539.4,-444.3,-641.1,-1476.0,0,0,1908,0,14,0,
1.0633,-234.9,-259.2,-263.7,-534.9,-444.0,-634.8,-1455.9,0,0,1914,0,15,0,
1.0667,-238.5,-261.9,-270.3,-538.2,-441.0,-636.3,-1460.4,0,0,1920,0,16,0,
1.0700,-241.8,-269.4,-269.4,-540.3,-441.3,-637.8,-1464.3,0,0,1926,0,17,0,
1.0733,-243.3,-275.7,-269.7,-540.0,-446.7,-643.5,-1463.7,0,0,1932,0,18,0,
1.0767,-248.4,-279.6,-274.5,-543.3,-450.3,-644.7,-1462.2,0,0,1938,0,19,0,
1.0800,-239.1,-272.7,-277.2,-544.2,-449.1,-642.3,-1457.4,0,0,1944,0,20,0,
1.0833,-240.6,-270.9,-278.7,-543.0,-444.9,-643.5,-1457.7,0,0,1950,0,21,0,
1.0867,-247.5,-268.2,-272.1,-542.4,-446.1,-645.3,-1463.7,0,0,1956,0,22,0,
1.0900,-236.1,-263.4,-272.1,-537.0,-438.6,-636.0,-1449.3,0,0,1962,0,23,0,
1.0933,-233.1,-254.1,-267.3,-538.5,-441.3,-638.1,-1448.7,0,0,1968,0,24,0,
1.0967,-237.9,-263.1,-273.9,-541.8,-443.4,-637.2,-1448.7,0,0,1974,0,25,0,
1.1000,-243.0,-268.8,-270.0,-541.2,-447.3,-644.7,-1452.3,0,0,1980,0,26,0,
1.1033,-244.5,-260.1,-271.5,-537.3,-442.5,-635.7,-1443.3,0,0,1986,0,27,0,
1.1067,-247.5,-265.5,-290.4,-543.6,-440.4,-645.6,-1454.7,0,0,1992,0,28,0,
1.1100,-250.2,-278.4,-283.8,-544.8,-443.4,-643.2,-1456.5,0,0,1998,0,29,0,
1.1133,-256.8,-285.3,-288.0,-551.7,-428.1,-671.4,-1466.4,0,0,2004,0,30,0,
1.1167,-242.7,-261.0,-269.7,-540.0,-443.4,-631.2,-1444.2,0,0,2010,0,31,0,
1.1200,-240.0,-263.7,-273.6,-543.0,-446.4,-630.0,-1438.5,0,0,2016,0,32,0,
1.1233,-248.1,-267.0,-268.8,-539.1,-440.7,-642.6,-1450.8,0,0,2022,0,33,0,
1.1267,-246.3,-261.6,-272.7,-538.8,-438.3,-640.8,-1446.9,0,0,2028,0,34,0,
1.1300,-246.0,-259.5,-276.3,-540.6,-440.4,-635.4,-1437.9,0,0,2034,0,35,0,
1.1333,-250.2,-267.3,-283.5,-543.3,-440.7,-640.2,-1440.6,0,0,2040,0,36,0,
1.1367,-242.1,-260.1,-278.7,-540.3,-439.2,-636.6,-1437.9,0,0,2046,0,37,0,
1.1400,-239.7,-260.1,-279.6,-540.6,-440.4,-630.9,-1431.0,0,0,2052,0,38,0,
1.1433,-245.7,-271.2,-273.6,-543.0,-441.6,-639.3,-1446.9,0,0,2058,0,39,0,
1.1467,-259.8,-277.5,-281.7,-542.4,-446.7,-646.2,-1455.9,0,0,2064,0,40,0,
1.1500,-253.8,-264.0,-293.1,-544.5,-444.6,-645.6,-1435.5,0,0,2070,0,41,0,
1.1533,-249.0,-260.7,-283.5,-543.9,-444.0,-637.5,-1428.6,0,0,2076,0,42,0,
1.1567,-254.7,-263.7,-282.3,-544.2,-444.3,-641.1,-1433.1,0,0,2082,0,43,0,
1.1600,-255.9,-261.3,-276.3,-543.6,-444.9,-639.9,-1434.0,0,0,2088,0,44,0,
1.1633,-251.1,-261.0,-279.9,-542.1,-447.0,-636.9,-1424.7,0,0,2094,0,45,0,
1.1667,-253.2,-269.1,-278.1,-545.7,-450.3,-638.4,-1418.4,0,0,2100,0,46,0,
1.1700,-250.8,-261.9,-283.5,-541.8,-444.3,-636.3,-1427.7,0,0,2106,0,47,0,
1.1733,-249.0,-263.4,-274.5,-541.5,-440.7,-626.1,-1423.5,0,0,2112,0,48,0,
1.1767,-255.6,-258.3,-282.6,-544.5,-443.7,-634.5,-1424.4,0,0,2118,0,49,0,
1.1800,-253.8,-256.8,-278.7,-541.5,-447.6,-645.0,-1427.7,0,0,2124,0,50,0,
1.1833,-249.9,-258.9,-275.7,-540.3,-444.0,-634.5,-1418.4,0,0,2130,0,51,0,
1.1867,-247.2,-260.1,-284.7,-541.8,-446.7,-635.4,-1418.4,0,0,2136,0,52,0,
1.1900,-254.4,-256.2,-277.2,-541.8,-449.4,-634.2,-1409.4,0,0,2142,0,53,0,
1.1933,-254.4,-256.5,-273.0,-540.0,-447.6,-635.4,-1412.4,0,0,2148,0,54,0,
1.1967,-255.3,-261.3,-276.6,-542.1,-449.4,-646.8,-1425.3,0,0,2154,0,55,0,
1.2000,-261.0,-266.4,-279.9,-545.1,-432.3,-654.0,-1429.2,0,0,2160,0,56,0,
1.2033,-244.5,-243.9,-263.7,-534.9,-463.8,-631.5,-1408.2,0,0,2166,0,57,0,
1.2067,-250.2,-251.4,-264.6,-535.8,-457.2,-639.3,-1423.5,0,0,2172,0,58,0,
1.2100,-256.8,-259.2,-269.1,-539.4,-456.0,-642.9,-1423.8,0,0,2178,0,59,0,
1.2133,-246.3,-247.5,-270.3,-540.0,-450.0,-636.9,-1409.4,0,0,2184,0,60,0,
1.2167,-244.5,-244.2,-273.0,-539.7,-452.7,-636.0,-1410.0,0,0,2190,0,61,0,
1.2200,-239.1,-246.0,-271.2,-540.0,-449.1,-637.2,-1412.1,0,0,2196,0,62,0,
1.2233,-244.2,-257.4,-270.9,-542.4,-446.7,-635.7,-1405.5,0,0,2202,0,63,0,
1.2267,-243.6,-262.5,-271.5,-535.5,-445.8,-633.6,-1404.3,0,0,2208,0,64,0,
1.2300,-239.1,-252.9,-271.5,-534.6,-442.8,-630.3,-1407.0,0,0,2214,0,65,0,
1.2333,-240.6,-245.4,-274.2,-536.1,-444.0,-626.1,-1410.3,0,0,2220,0,66,0,
1.2367,-238.8,-237.9,-267.3,-535.5,-446.4,-638.4,-1400.4,0,0,2226,0,67,0,
1.2400,-246.9,-252.3,-268.2,-538.5,-449.7,-636.6,-1401.6,0,0,2232,0,68,0,
1.2433,-246.0,-248.1,-273.3,-535.8,-444.9,-633.6,-1394.4,0,0,2238,0,69,0,
1.2467,-248.4,-255.3,-276.0,-543.3,-449.7,-634.8,-1406.1,0,0,2244,0,70,0,
1.2500,-249.6,-254.4,-278.4,-542.1,-445.2,-639.6,-1397.7,0,0,2250,0,71,0,
1.2533,-242.1,-255.9,-279.6,-537.3,-444.3,-640.8,-1397.4,0,0,2256,0,72,0,
1.2567,-246.9,-255.3,-275.7,-535.2,-442.5,-641.1,-1402.2,0,0,2262,0,73,0,
1.2600,-251.1,-256.5,-273.9,-535.5,-444.3,-640.2,-1393.8,0,0,2268,0,74,0,
1.2633,-238.2,-252.6,-269.4,-538.2,-447.3,-636.3,-1387.2,0,0,2274,0,75,0,
1.2667,-264.9,-274.8,-275.7,-545.4,-433.8,-669.3,-1409.7,0,0,2280,0,76,0,
1.2700,-244.2,-263.7,-280.2,-539.1,-441.0,-641.1,-1395.0,0,0,2286,0,77,0,
1.2733,-240.3,-243.0,-270.0,-539.1,-457.5,-626.4,-1384.2,0,0,2292,0,78,0,
1.2767,-242.7,-255.6,-275.7,-543.3,-444.0,-636.6,-1381.8,0,0,2298,0,79,0,
1.2800,-247.8,-251.1,-273.0,-542.1,-446.1,-639.3,-1376.4,0,0,2304,0,80,0,
1.2833,-251.1,-251.7,-274.2,-543.0,-448.5,-640.5,-1380.9,0,0,2310,0,81,0,
1.2867,-249.6,-246.6,-277.5,-539.4,-445.2,-639.9,-1382.4,0,0,2316,0,82,0,
1.2900,-246.9,-246.3,-272.1,-537.0,-442.5,-638.4,-1378.2,0,0,2322,0,83,0,
1.2933,-252.0,-245.4,-274.5,-540.3,-443.4,-639.9,-1382.4,0,0,2328,0,84,0,
1.2967,-254.7,-245.1,-274.5,-543.0,-445.5,-640.5,-1380.3,0,0,2334,0,85,0,
1.3000,-250.8,-244.8,-276.3,-540.0,-442.2,-642.3,-1379.4,0,0,2340,0,86,0,
1.3033,-255.9,-267.0,-279.9,-544.2,-446.1,-644.7,-1385.1,0,0,2346,0,87,0,
1.3067,-255.9,-267.3,-276.6,-541.2,-444.0,-644.1,-1374.6,0,0,2352,0,88,0,
1.3100,-256.2,-261.6,-281.1,-543.9,-445.5,-642.6,-1365.9,0,0,2358,0,89,0,
1.3133,-260.4,-264.0,-280.5,-546.6,-446.4,-644.4,-1378.5,0,0,2364,0,90,0,
1.3167,-263.1,-261.0,-286.2,-546.3,-448.2,-646.2,-1377.3,0,0,2370,0,91,0,
1.3200,-251.1,-241.5,-277.2,-540.0,-444.0,-645.0,-1361.7,0,0,2376,0,92,0,
1.3233,-247.8,-246.9,-277.5,-539.1,-439.8,-640.8,-1360.2,0,0,2382,0,93,0,
1.3267,-261.3,-255.3,-281.7,-548.4,-450.6,-654.3,-1368.9,0,0,2388,0,94,0,
1.3300,-262.2,-260.4,-278.1,-544.2,-445.8,-648.0,-1371.6,0,0,2394,0,95,0,
1.3333,-261.3,-252.3,-278.1,-543.3,-446.1,-649.5,-1373.4,0,0,2400,0,96,0,
1.3367,-263.1,-249.6,-278.1,-543.0,-438.9,-639.9,-1369.8,0,0,2406,0,97,0,
1.3400,-256.2,-242.1,-274.8,-538.5,-439.5,-649.5,-1359.0,0,0,2412,0,98,0,
1.3433,-269.7,-261.0,-287.1,-550.2,-429.9,-671.7,-1365.3,0,0,2418,0,99,0,
1.3467,-257.4,-239.7,-258.6,-535.8,-451.8,-636.3,-1347.3,0,0,2424,0,100,0,
1.3500,-250.8,-241.8,-274.5,-534.6,-444.0,-644.7,-1349.7,0,0,2430,0,101,0,
1.3533,-246.6,-241.2,-270.0,-538.8,-443.7,-640.5,-1347.9,0,0,2436,0,102,0,
1.3567,-252.9,-250.5,-270.9,-539.7,-444.0,-642.3,-1352.7,0,0,2442,0,103,0,
1.3600,-256.2,-246.9,-268.5,-540.9,-445.5,-644.4,-1355.4,0,0,2448,0,104,0,
1.3633,-255.6,-245.4,-273.0,-541.2,-441.6,-643.5,-1344.9,0,0,2454,0,105,0,
1.3667,-260.1,-250.5,-281.1,-542.4,-444.9,-644.4,-1353.6,0,0,2460,0,106,0,
1.3700,-241.8,-239.4,-270.6,-537.9,-437.7,-631.5,-1334.1,0,0,2466,0,107,0,
1.3733,-243.9,-240.0,-275.7,-542.4,-441.9,-639.9,-1345.8,0,0,2472,0,108,0,
1.3767,-250.2,-248.4,-271.5,-540.6,-438.9,-633.6,-1338.6,0,0,2478,0,109,0,
1.3800,-242.1,-235.5,-261.9,-532.2,-437.1,-635.1,-1347.3,0,0,2484,0,110,0,
1.3833,-242.1,-229.2,-255.6,-531.0,-437.7,-635.7,-1329.0,0,0,2490,0,111,0,
1.3867,-245.7,-241.8,-264.9,-539.1,-439.5,-640.8,-1341.9,0,0,2496,0,112,0,
1.3900,-246.3,-235.5,-269.4,-535.8,-437.7,-636.6,-1336.5,0,0,2502,0,113,0,
1.3933,-245.1,-236.4,-271.5,-536.4,-441.3,-640.2,-1340.1,0,0,2508,0,114,0,
1.3967,-241.8,-234.9,-268.8,-535.2,-436.8,-638.1,-1336.5,0,0,2514,0,115,0,
1.4000,-246.6,-230.7,-267.3,-534.0,-440.4,-636.9,-1339.5,0,0,2520,0,116,0,
1.4033,-252.9,-246.3,-275.7,-537.3,-425.7,-651.0,-1341.3,0,0,2526,0,117,0,
1.4067,-257.7,-246.0,-275.7,-538.8,-433.8,-648.0,-1347.9,0,0,2532,0,118,0,
1.4100,-237.6,-232.8,-264.0,-529.2,-450.0,-622.8,-1329.3,0,0,2538,0,119,0,
1.4133,-249.3,-234.3,-269.1,-535.5,-441.6,-636.0,-1338.9,0,0,2544,0,120,0,
1.4167,-249.9,-237.6,-271.2,-536.4,-442.2,-642.0,-1338.0,0,0,2550,0,121,0,
1.4200,-257.1,-242.7,-273.6,-535.5,-442.2,-644.7,-1344.0,0,0,2556,0,122,0,
1.4233,-251.4,-236.4,-265.8,-531.3,-440.4,-637.2,-1329.0,0,0,2562,0,123,0,
1.4267,-245.1,-232.5,-261.0,-534.9,-438.3,-636.0,-1326.3,0,0,2568,0,124,0,
1.4300,-247.2,-235.2,-268.2,-534.9,-436.5,-634.5,-1327.2,0,0,2574,0,125,0,
1.4333,-247.8,-233.1,-273.3,-534.6,-438.9,-632.4,-1317.9,0,0,2580,0,126,0,
1.4367,-250.5,-232.2,-265.2,-530.1,-440.1,-641.4,-1332.3,0,0,2586,0,127,0,
1.4400,-249.3,-227.4,-254.1,-524.1,-435.6,-634.2,-1320.3,0,0,2592,0,128,0,
1.4433,-249.9,-228.0,-257.1,-531.6,-438.3,-634.2,-1328.1,0,0,2598,0,129,0,
1.4467,-255.3,-225.3,-265.2,-532.8,-437.1,-636.3,-1332.9,0,0,2604,0,130,0,
1.4500,-251.1,-227.4,-269.1,-534.3,-437.4,-633.6,-1327.5,0,0,2610,0,131,0,
1.4533,-250.2,-225.9,-263.1,-529.5,-431.4,-624.0,-1315.2,0,0,2616,0,132,0,
1.4567,-248.4,-222.0,-263.7,-531.6,-435.0,-633.9,-1315.8,0,0,2622,0,133,0,
1.4600,-248.4,-221.7,-265.5,-534.6,-435.6,-629.4,-1314.6,0,0,2628,0,134,0,
1.4633,-252.0,-220.8,-265.2,-537.0,-431.4,-652.5,-1314.3,0,0,2634,0,135,0,
1.4667,-257.7,-223.5,-274.5,-539.1,-431.7,-645.3,-1312.5,0,0,2640,0,136,0,
1.4700,-241.5,-204.6,-259.2,-525.6,-452.4,-618.9,-1300.5,0,0,2646,0,137,0,
1.4733,-252.0,-215.7,-261.6,-530.1,-436.8,-626.4,-1303.5,0,0,2652,0,138,0,
1.4767,-247.5,-225.9,-267.9,-536.1,-444.3,-636.0,-1311.0,0,0,2658,0,139,0,
1.4800,-247.5,-219.0,-262.5,-534.0,-437.4,-634.2,-1312.5,0,0,2664,0,140,0,
1.4833,-240.3,-217.8,-269.7,-533.1,-436.5,-630.6,-1306.8,0,0,2670,0,141,0,
1.4867,-240.6,-211.5,-265.5,-530.7,-435.0,-630.0,-1300.2,0,0,2676,0,142,0,
1.4900,-243.3,-221.4,-270.9,-532.8,-436.8,-630.9,-1307.1,0,0,2682,0,143,0,
1.4933,-253.2,-228.6,-280.5,-536.4,-436.5,-631.5,-1303.5,0,0,2688,0,144,0,
1.4967,-250.8,-225.6,-279.0,-537.9,-442.2,-639.0,-1314.9,0,0,2694,0,145,0,
1.5000,-246.0,-208.5,-268.5,-529.5,-434.7,-627.9,-1303.5,0,0,2700,0,146,0,
1.5033,-240.6,-209.1,-264.0,-531.9,-439.5,-635.7,-1309.2,0,0,2706,0,147,0,
1.5067,-246.6,-225.6,-279.0,-534.0,-437.7,-632.7,-1314.6,0,0,2712,0,148,0,
1.5100,-247.8,-222.3,-270.3,-533.1,-436.8,-631.8,-1309.5,0,0,2718,0,149,0,
1.5133,-246.9,-231.6,-277.8,-540.0,-440.4,-642.0,-1308.9,0,0,2724,0,150,0,
1.5167,-242.4,-217.8,-274.8,-537.3,-441.0,-633.0,-1299.3,0,0,2730,0,151,0,
1.5200,-243.6,-218.1,-269.7,-533.4,-439.5,-636.0,-1303.5,0,0,2736,0,152,0,
1.5233,-238.2,-219.9,-268.5,-534.6,-438.6,-636.3,-1300.8,0,0,2742,0,153,0,
1.5267,-234.6,-218.4,-269.7,-537.0,-434.7,-632.7,-1296.0,0,0,2748,0,154,0,
1.5300,-238.8,-220.2,-269.1,-534.3,-437.4,-636.0,-1302.3,0,0,2754,0,155,0,
1.5333,-248.7,-224.1,-268.5,-537.9,-440.4,-641.1,-1307.4,0,0,2760,0,156,0,
1.5367,-239.7,-213.6,-267.3,-533.7,-437.4,-636.6,-1303.2,0,0,2766,0,157,0,
1.5400,-239.4,-216.9,-273.3,-534.6,-438.3,-635.7,-1299.9,0,0,2772,0,158,0,
1.5433,-246.6,-215.7,-270.0,-537.6,-437.7,-641.4,-1308.6,0,0,2778,0,159,0,
1.5467,-240.9,-211.8,-265.2,-535.2,-438.0,-630.6,-1297.8,0,0,2784,0,160,0,
1.5500,-243.3,-219.9,-273.0,-535.2,-420.9,-648.0,-1299.6,0,0,2790,0,161,0,
1.5533,-241.5,-215.1,-275.4,-539.7,-435.6,-634.5,-1299.6,0,0,2796,0,162,0,
1.5567,-228.9,-203.7,-262.8,-529.5,-445.8,-615.6,-1278.6,0,0,2802,0,163,0,
1.5600,-234.6,-206.1,-268.8,-531.6,-433.8,-630.6,-1290.6,0,0,2808,0,164,0,
1.5633,-229.5,-206.4,-268.2,-530.1,-436.8,-626.4,-1292.7,0,0,2814,0,165,0,
1.5667,-234.0,-214.2,-269.7,-534.0,-436.5,-629.7,-1288.5,0,0,2820,0,166,0,
1.5700,-230.1,-212.1,-264.3,-529.8,-434.4,-628.2,-1281.3,0,0,2826,0,167,0,
1.5733,-229.8,-211.2,-268.2,-534.9,-437.4,-630.3,-1281.6,0,0,2832,0,168,0,
1.5767,-237.9,-209.1,-266.4,-534.0,-436.8,-634.8,-1294.8,0,0,2838,0,169,0,
1.5800,-237.6,-213.9,-268.5,-532.8,-438.6,-636.9,-1288.5,0,0,2844,0,170,0,
1.5833,-232.5,-213.9,-266.4,-534.6,-437.4,-627.0,-1286.4,0,0,2850,0,171,0,
1.5867,-235.2,-210.0,-259.2,-532.8,-437.7,-631.2,-1279.2,0,0,2856,0,172,0,
1.5900,-230.4,-204.6,-256.2,-531.9,-435.3,-631.8,-1279.8,0,0,2862,0,173,0,
1.5933,-235.8,-210.6,-263.7,-533.7,-435.6,-630.9,-1280.7,0,0,2868,0,174,0,
1.5967,-242.7,-209.4,-263.4,-532.2,-436.5,-636.0,-1286.4,0,0,2874,0,175,0,
1.6000,-235.5,-205.2,-273.6,-535.5,-437.4,-636.9,-1282.8,0,0,2880,0,176,0,
1.6033,-233.7,-200.1,-268.2,-534.3,-434.7,-631.8,-1278.3,0,0,2886,0,177,0,
1.6067,-234.9,-201.6,-271.8,-535.2,-434.4,-635.4,-1278.9,0,0,2892,0,178,0,
1.6100,-236.4,-208.5,-271.5,-534.6,-439.2,-634.8,-1280.7,0,0,2898,0,179,0,
1.6133,-243.0,-208.5,-272.4,-535.5,-439.5,-638.1,-1294.2,0,0,2904,0,180,0,
1.6167,-236.1,-221.4,-281.1,-543.0,-433.5,-642.9,-1286.1,0,0,2910,0,181,0,
1.6200,-235.2,-214.2,-276.6,-539.1,-423.3,-638.1,-1285.2,0,0,2916,0,182,0,
1.6233,-212.1,-192.0,-264.0,-524.7,-446.7,-606.0,-1262.1,0,0,2922,0,183,0,
1.6267,-231.9,-207.0,-273.3,-538.8,-442.8,-630.0,-1278.9,0,0,2928,0,184,0,
1.6300,-228.6,-211.5,-273.6,-536.4,-446.1,-627.3,-1278.0,0,0,2934,0,185,0,
1.6333,-235.2,-212.7,-269.4,-535.2,-441.6,-630.6,-1277.4,0,0,2940,0,186,0,
1.6367,-228.0,-207.6,-269.7,-536.7,-443.1,-627.0,-1272.6,0,0,2946,0,187,0,
1.6400,-234.6,-204.9,-270.6,-537.9,-443.1,-628.8,-1268.4,0,0,2952,0,188,0,
1.6433,-237.9,-206.1,-270.0,-539.7,-443.4,-628.2,-1267.2,0,0,2958,0,189,0,
1.6467,-231.3,-209.1,-269.7,-537.3,-444.9,-630.9,-1279.2,0,0,2964,0,190,0,
1.6500,-231.9,-202.2,-269.7,-534.3,-439.5,-619.8,-1267.8,0,0,2970,0,191,0,
1.6533,-221.4,-190.2,-261.9,-526.5,-436.5,-628.5,-1262.1,0,0,2976,0,192,0,
1.6567,-239.7,-202.8,-270.0,-532.2,-435.6,-617.1,-1263.9,0,0,2982,0,193,0,
1.6600,-236.7,-199.2,-262.8,-534.3,-441.3,-628.8,-1260.0,0,0,2988,0,194,0,
1.6633,-234.3,-197.1,-261.0,-533.7,-440.1,-632.4,-1265.4,0,0,2994,0,195,0,
1.6667,-241.5,-203.1,-271.5,-538.2,-440.7,-627.0,-1267.8,0,0,3000,0,196,0,
1.6700,-229.5,-189.9,-255.6,-527.1,-429.9,-620.4,-1258.5,0,0,3006,0,197,0,
1.6733,-240.9,-197.7,-255.6,-534.3,-432.3,-628.2,-1261.8,0,0,3012,0,198,0,
1.6767,-237.9,-204.0,-270.6,-533.7,-427.8,-627.0,-1266.0,0,0,3018,0,199,0,
1.6800,-234.3,-201.0,-263.7,-536.4,-431.1,-628.2,-1265.4,0,0,3024,0,200,0,
1.6833,-249.9,-207.9,-273.0,-543.0,-417.0,-648.0,-1281.6,0,0,3030,0,201,0,
1.6867,-232.2,-198.0,-256.8,-530.1,-438.0,-615.9,-1263.9,0,0,3036,0,202,0,
1.6900,-236.1,-193.8,-262.5,-530.1,-436.8,-621.6,-1266.0,0,0,3042,0,203,0,
1.6933,-238.5,-204.9,-266.4,-533.4,-432.9,-624.9,-1260.6,0,0,3048,0,204,0,
1.6967,-245.1,-205.8,-268.2,-535.5,-436.5,-626.1,-1259.4,0,0,3054,0,205,0,
1.7000,-239.1,-200.1,-262.8,-532.8,-437.7,-628.2,-1253.4,0,0,3060,0,206,0,
1.7033,-245.1,-204.9,-272.4,-535.8,-435.0,-627.3,-1268.7,0,0,3066,0,207,0,
1.7067,-234.0,-202.8,-263.4,-530.4,-433.2,-620.7,-1248.9,0,0,3072,0,208,0,
1.7100,-242.7,-202.5,-273.0,-533.1,-429.9,-611.4,-1255.8,0,0,3078,0,209,0,
1.7133,-241.8,-202.5,-270.6,-534.6,-437.1,-628.8,-1272.3,0,0,3084,0,210,0,
1.7167,-242.7,-207.0,-270.9,-539.1,-440.4,-636.9,-1273.2,0,0,3090,0,211,0,
1.7200,-237.9,-198.9,-275.7,-537.9,-436.8,-629.4,-1263.0,0,0,3096,0,212,0,
1.7233,-240.6,-195.3,-266.4,-537.0,-434.4,-626.1,-1262.4,0,0,3102,0,213,0,
1.7267,-242.4,-199.8,-267.0,-538.2,-435.9,-628.8,-1266.0,0,0,3108,0,214,0,
1.7300,-245.7,-202.2,-268.5,-535.8,-436.8,-628.2,-1266.6,0,0,3114,0,215,0,
1.7333,-246.6,-192.6,-270.9,-539.7,-438.6,-630.3,-1264.5,0,0,3120,0,216,0,
1.7367,-239.1,-190.8,-261.6,-534.6,-431.7,-626.1,-1259.7,0,0,3126,0,217,0,
1.7400,-244.2,-193.5,-262.8,-532.2,-431.1,-624.3,-1261.8,0,0,3132,0,218,0,
1.7433,-243.3,-200.4,-267.6,-535.8,-433.5,-623.4,-1261.8,0,0,3138,0,219,0,
1.7467,-249.9,-201.6,-267.6,-536.7,-438.6,-629.7,-1265.7,0,0,3144,0,220,0,
1.7500,-240.6,-188.4,-256.5,-533.4,-437.4,-625.8,-1260.0,0,0,3150,0,221,0,
1.7533,-233.4,-183.9,-262.8,-532.2,-433.2,-622.2,-1249.8,0,0,3156,0,222,0,
1.7567,-235.8,-184.2,-273.0,-534.9,-432.9,-626.4,-1251.3,0,0,3162,0,223,0,
1.7600,-238.8,-188.4,-268.8,-534.3,-432.9,-623.7,-1261.2,0,0,3168,0,224,0,
1.7633,-248.1,-192.0,-268.5,-538.5,-414.0,-638.4,-1263.3,0,0,3174,0,225,0,
1.7667,-226.8,-172.2,-260.7,-525.0,-434.4,-611.1,-1242.0,0,0,3180,0,226,0,
1.7700,-227.7,-174.9,-261.6,-523.5,-438.3,-613.5,-1244.1,0,0,3186,0,227,0,
1.7733,-223.8,-176.1,-258.3,-525.0,-431.7,-616.5,-1238.4,0,0,3192,0,228,0,
1.7767,-228.6,-177.3,-250.5,-525.3,-428.7,-610.2,-1241.1,0,0,3198,0,229,0,
1.7800,-233.1,-177.3,-256.2,-528.0,-436.2,-624.6,-1245.0,0,0,3204,0,230,0,
1.7833,-234.0,-178.8,-257.4,-528.6,-432.3,-621.3,-1251.6,0,0,3210,0,231,0,
1.7867,-242.4,-180.0,-257.4,-531.9,-436.5,-625.8,-1257.3,0,0,3216,0,232,0,
1.7900,-250.5,-187.8,-263.7,-531.0,-434.1,-621.6,-1251.3,0,0,3222,0,233,0,
1.7933,-254.7,-190.8,-264.6,-532.5,-433.8,-627.0,-1265.1,0,0,3228,0,234,0,
1.7967,-239.7,-194.4,-262.2,-532.8,-436.8,-624.0,-1270.5,0,0,3234,0,235,0,
1.8000,-236.1,-183.0,-261.6,-531.0,-435.6,-615.6,-1242.6,0,0,3240,0,236,0,
1.8033,-235.8,-181.8,-262.5,-528.9,-432.9,-617.4,-1246.5,0,0,3246,0,237,0,
1.8067,-238.8,-181.8,-258.9,-530.1,-432.3,-625.2,-1255.8,0,0,3252,0,238,0,
1.8100,-238.2,-176.7,-259.5,-537.6,-432.3,-612.3,-1253.7,0,0,3258,0,239,0,
1.8133,-235.2,-178.5,-258.9,-534.0,-435.9,-618.6,-1248.3,0,0,3264,0,240,0,
1.8167,-236.1,-179.4,-254.1,-528.6,-437.7,-623.7,-1246.5,0,0,3270,0,241,0,
1.8200,-231.6,-178.5,-252.9,-529.5,-437.4,-621.6,-1242.9,0,0,3276,0,242,0,
1.8233,-237.6,-179.7,-257.7,-530.7,-435.9,-621.6,-1252.2,0,0,3282,0,243,0,
1.8267,-237.9,-186.9,-255.3,-531.6,-436.2,-621.9,-1253.4,0,0,3288,0,244,0,
1.8300,-234.9,-174.6,-247.5,-526.8,-432.9,-618.6,-1238.1,0,0,3294,0,245,0,
1.8333,-241.5,-182.1,-267.3,-534.6,-435.6,-621.0,-1246.5,0,0,3300,0,246,0,
1.8367,-240.0,-186.0,-261.3,-534.6,-437.7,-623.7,-1251.6,0,0,3306,0,247,0,
1.8400,-254.4,-192.6,-270.3,-539.1,-419.4,-635.1,-1262.7,0,0,3312,0,248,0,
1.8433,-238.8,-181.2,-263.1,-532.8,-445.2,-625.2,-1258.5,0,0,3318,0,249,0,
1.8467,-238.8,-186.6,-258.9,-530.4,-444.3,-616.2,-1249.8,0,0,3324,0,250,0,
1.8500,-239.4,-189.3,-259.8,-531.0,-435.6,-625.8,-1255.5,0,0,3330,0,251,0,
1.8533,-240.3,-186.6,-259.8,-529.2,-434.4,-623.4,-1254.3,0,0,3336,0,252,0,
1.8567,-242.1,-180.9,-264.6,-532.8,-440.1,-627.0,-1252.8,0,0,3342,0,253,0,
1.8600,-245.1,-180.6,-268.8,-533.7,-435.0,-621.6,-1248.9,0,0,3348,0,254,0,
1.8633,-249.0,-182.1,-270.0,-535.2,-438.6,-627.3,-1247.4,0,0,3354,0,255,0,
1.8667,-247.5,-185.1,-269.1,-534.0,-435.9,-627.0,-1245.0,0,0,3360,0,0,0,
1.8700,-238.8,-183.3,-264.9,-532.2,-435.6,-623.4,-1248.3,0,0,3366,0,1,0,
1.8733,-245.7,-178.5,-262.5,-530.1,-435.0,-625.5,-1248.3,0,0,3372,0,2,0,
1.8767,-252.6,-192.0,-273.0,-533.4,-441.9,-630.3,-1263.6,0,0,3378,0,3,0,
1.8800,-251.1,-192.6,-267.3,-532.5,-440.7,-630.6,-1261.5,0,0,3384,0,4,0,
1.8833,-256.2,-195.0,-266.4,-531.9,-441.9,-633.3,-1256.7,0,0,3390,0,5,0,
1.8867,-252.9,-193.2,-271.2,-532.5,-443.7,-627.9,-1247.4,0,0,3396,0,6,0,
1.8900,-254.1,-189.0,-264.9,-532.8,-444.6,-631.2,-1252.2,0,0,3402,0,7,0,
1.8933,-260.1,-194.7,-267.3,-533.1,-448.5,-635.1,-1260.9,0,0,3408,0,8,0,
1.8967,-258.0,-199.2,-264.9,-533.7,-442.8,-629.7,-1255.8,0,0,3414,0,9,0,
1.9000,-259.5,-187.5,-264.9,-530.7,-444.3,-628.8,-1255.5,0,0,3420,0,10,0,
1.9033,-250.2,-181.5,-265.2,-531.9,-440.4,-630.6,-1247.7,0,0,3426,0,11,0,
1.9067,-261.9,-183.9,-269.7,-535.5,-440.7,-619.5,-1253.4,0,0,3432,0,12,0,
1.9100,-255.0,-188.7,-255.9,-532.8,-442.5,-627.3,-1254.0,0,0,3438,0,13,0,
1.9133,-242.1,-181.2,-262.2,-529.2,-441.6,-629.1,-1246.8,0,0,3444,0,14,0,
1.9167,-244.2,-185.4,-264.9,-533.1,-441.6,-621.6,-1236.3,0,0,3450,0,15,0,
1.9200,-238.5,-178.5,-255.0,-525.0,-438.3,-619.2,-1241.4,0,0,3456,0,16,0,
1.9233,-248.4,-185.1,-256.8,-528.9,-432.6,-631.5,-1248.3,0,0,3462,0,17,0,
1.9267,-256.5,-199.2,-268.5,-534.0,-422.1,-642.3,-1249.8,0,0,3468,0,18,0,
1.9300,-236.1,-177.0,-253.8,-524.7,-451.8,-610.5,-1224.6,0,0,3474,0,19,0,
1.9333,-241.8,-179.4,-264.9,-532.8,-441.9,-627.6,-1237.5,0,0,3480,0,20,0,
1.9367,-241.5,-176.1,-259.5,-531.3,-439.8,-620.1,-1230.3,0,0,3486,0,21,0,
1.9400,-248.1,-186.0,-258.6,-531.9,-439.5,-631.2,-1245.3,0,0,3492,0,22,0,
1.9433,-239.7,-183.3,-252.3,-531.0,-439.5,-626.4,-1232.7,0,0,3498,0,23,0,
1.9467,-242.4,-181.2,-253.8,-529.5,-435.6,-627.6,-1235.1,0,0,3504,0,24,0,
1.9500,-243.9,-178.2,-246.9,-529.8,-434.1,-619.8,-1237.8,0,0,3510,0,25,0,
1.9533,-241.2,-183.0,-253.2,-529.5,-436.8,-633.0,-1237.8,0,0,3516,0,26,0,
1.9567,-257.1,-202.8,-264.9,-537.3,-438.6,-631.8,-1247.4,0,0,3522,0,27,0,
1.9600,-255.0,-203.1,-261.3,-539.1,-444.0,-637.5,-1239.9,0,0,3528,0,28,0,
1.9633,-252.9,-202.5,-265.5,-537.6,-436.8,-626.4,-1230.6,0,0,3534,0,29,0,
1.9667,-253.5,-198.9,-267.6,-537.9,-439.5,-634.5,-1228.5,0,0,3540,0,30,0,
1.9700,-247.8,-195.0,-259.2,-532.5,-435.3,-632.7,-1224.6,0,0,3546,0,31,0,
1.9733,-248.1,-194.7,-253.2,-530.4,-435.3,-630.6,-1226.1,0,0,3552,0,32,0,
1.9767,-255.3,-199.8,-254.7,-534.3,-437.1,-632.1,-1225.2,0,0,3558,0,33,0,
1.9800,-248.7,-198.9,-264.0,-531.3,-438.0,-635.7,-1232.1,0,0,3564,0,34,0,
1.9833,-244.2,-192.6,-265.5,-531.3,-436.5,-632.1,-1225.2,0,0,3570,0,35,0,
1.9867,-246.9,-200.1,-261.6,-534.0,-438.0,-635.7,-1229.7,0,0,3576,0,36,0,
1.9900,-255.0,-202.8,-258.3,-530.7,-438.9,-637.8,-1233.3,0,0,3582,0,37,0,
1.9933,-255.6,-198.3,-272.7,-538.2,-439.5,-646.5,-1236.6,0,0,3588,0,38,0,
1.9967,-262.2,-207.9,-274.2,-542.1,-423.0,-651.3,-1239.3,0,0,3594,0,39,0,
2.0000,-237.9,-192.3,-260.4,-530.1,-448.8,-617.7,-1215.9,0,0,3600,0,40,0,
2.0033,-253.8,-216.6,-273.0,-539.1,-442.5,-637.5,-1232.1,0,0,3606,0,41,0,
2.0067,-244.8,-209.7,-262.5,-533.4,-442.5,-640.5,-1226.7,0,0,3612,0,42,0,
2.0100,-251.7,-212.1,-264.3,-533.4,-442.8,-639.3,-1236.3,0,0,3618,0,43,0,
2.0133,-249.0,-209.4,-270.6,-534.6,-442.5,-639.6,-1233.3,0,0,3624,0,44,0,
2.0167,-254.7,-206.1,-270.9,-535.2,-439.8,-638.4,-1230.3,0,0,3630,0,45,0,
2.0200,-242.4,-207.3,-266.1,-533.7,-438.6,-639.0,-1227.0,0,0,3636,0,46,0,
2.0233,-244.2,-204.9,-265.5,-536.4,-432.3,-633.9,-1227.0,0,0,3642,0,47,0,
2.0267,-249.9,-201.9,-267.0,-538.8,-436.8,-644.4,-1228.5,0,0,3648,0,48,0,
2.0300,-249.0,-203.4,-263.4,-538.8,-434.1,-640.5,-1217.1,0,0,3654,0,49,0,
2.0333,-245.1,-199.8,-272.7,-535.2,-437.1,-639.9,-1221.0,0,0,3660,0,50,0,
2.0367,-242.1,-193.5,-264.9,-532.8,-431.7,-631.8,-1209.6,0,0,3666,0,51,0,
2.0400,-246.0,-198.0,-264.9,-532.5,-432.0,-635.4,-1214.7,0,0,3672,0,52,0,
2.0433,-248.7,-198.0,-257.7,-531.3,-436.5,-642.9,-1214.7,0,0,3678,0,53,0,
2.0467,-252.3,-216.3,-275.4,-540.3,-433.8,-636.0,-1234.5,0,0,3684,0,54,0,
2.0500,-241.8,-203.7,-268.8,-537.3,-435.6,-637.2,-1213.8,0,0,3690,0,55,0,
2.0533,-254.4,-210.9,-273.9,-540.0,-417.6,-659.4,-1222.2,0,0,3696,0,56,0,
2.0567,-249.0,-205.8,-266.1,-533.4,-439.2,-634.8,-1218.6,0,0,3702,0,57,0,
2.0600,-243.9,-196.5,-259.8,-532.5,-444.0,-630.9,-1217.1,0,0,3708,0,58,0,
2.0633,-244.2,-193.5,-260.1,-533.1,-433.5,-630.3,-1203.6,0,0,3714,0,59,0,
2.0667,-249.9,-197.7,-265.8,-535.5,-437.4,-638.4,-1209.6,0,0,3720,0,60,0,
2.0700,-243.0,-187.2,-259.5,-527.1,-434.7,-633.3,-1206.9,0,0,3726,0,61,0,
2.0733,-239.4,-190.2,-264.9,-531.0,-432.0,-635.1,-1209.0,0,0,3732,0,62,0,
2.0767,-239.1,-190.5,-259.8,-529.8,-428.7,-638.1,-1209.0,0,0,3738,0,63,0,
2.0800,-248.1,-189.0,-261.0,-529.2,-430.5,-639.0,-1213.2,0,0,3744,0,64,0,
2.0833,-250.5,-188.1,-268.2,-532.5,-433.8,-641.1,-1213.5,0,0,3750,0,65,0,
2.0867,-254.1,-198.6,-267.6,-530.1,-429.3,-630.6,-1216.2,0,0,3756,0,66,0,
2.0900,-247.5,-202.8,-267.9,-532.5,-435.3,-641.7,-1216.8,0,0,3762,0,67,0,
2.0933,-253.2,-212.1,-274.5,-533.7,-435.3,-634.2,-1215.0,0,0,3768,0,68,0,
2.0967,-243.3,-203.1,-269.4,-533.1,-435.3,-642.3,-1213.8,0,0,3774,0,69,0,
2.1000,-248.4,-196.8,-263.7,-531.9,-436.5,-639.3,-1205.7,0,0,3780,0,70,0,
2.1033,-245.7,-199.5,-265.2,-532.8,-432.0,-638.1,-1208.7,0,0,3786,0,71,0,
2.1067,-253.8,-203.4,-262.8,-534.6,-435.0,-641.4,-1209.3,0,0,3792,0,72,0,
2.1100,-251.7,-203.7,-274.5,-535.2,-435.6,-643.5,-1221.9,0,0,3798,0,73,0,
2.1133,-253.8,-198.9,-263.7,-532.2,-434.1,-639.0,-1214.1,0,0,3804,0,74,0,
2.1167,-251.4,-198.0,-261.6,-530.1,-432.0,-635.7,-1208.1,0,0,3810,0,75,0,
2.1200,-247.8,-195.9,-258.0,-531.9,-428.1,-632.7,-1212.6,0,0,3816,0,76,0,
2.1233,-248.4,-195.6,-259.2,-532.2,-427.8,-635.1,-1206.0,0,0,3822,0,77,0,
2.1267,-267.0,-205.5,-275.1,-539.7,-414.9,-652.2,-1226.4,0,0,3828,0,78,0,
2.1300,-246.3,-187.2,-253.5,-525.0,-440.1,-612.9,-1203.6,0,0,3834,0,79,0,
2.1333,-246.9,-192.9,-257.7,-528.0,-435.3,-622.2,-1210.5,0,0,3840,0,80,0,
2.1367,-241.8,-179.4,-255.9,-526.5,-430.8,-626.4,-1202.4,0,0,3846,0,81,0,
2.1400,-246.0,-190.5,-257.4,-524.7,-427.5,-625.5,-1201.8,0,0,3852,0,82,0,
2.1433,-251.7,-194.1,-260.4,-530.4,-428.1,-622.8,-1199.7,0,0,3858,0,83,0,
2.1467,-241.8,-191.1,-254.7,-527.7,-428.1,-630.0,-1187.7,0,0,3864,0,84,0,
2.1500,-240.6,-190.8,-268.5,-531.3,-427.8,-624.9,-1195.2,0,0,3870,0,85,0,
2.1533,-250.2,-189.6,-265.5,-531.6,-424.5,-621.9,-1199.1,0,0,3876,0,86,0,
2.1567,-246.9,-196.2,-268.8,-533.1,-427.5,-624.0,-1214.7,0,0,3882,0,87,0,
2.1600,-246.9,-192.6,-271.8,-533.4,-436.2,-633.3,-1196.4,0,0,3888,0,88,0,
2.1633,-248.4,-194.1,-273.0,-532.2,-435.0,-634.5,-1206.6,0,0,3894,0,89,0,
2.1667,-252.3,-191.7,-271.2,-533.1,-436.2,-632.4,-1207.5,0,0,3900,0,90,0,
2.1700,-248.1,-189.6,-264.0,-528.3,-432.0,-633.3,-1209.3,0,0,3906,0,91,0,
2.1733,-249.0,-189.0,-262.2,-530.4,-431.4,-631.8,-1202.7,0,0,3912,0,92,0,
2.1767,-248.1,-194.4,-267.0,-531.3,-430.8,-633.9,-1198.2,0,0,3918,0,93,0,
2.1800,-251.4,-188.1,-269.7,-533.1,-431.7,-634.8,-1206.0,0,0,3924,0,94,0,
2.1833,-244.5,-197.1,-260.1,-531.3,-426.0,-630.3,-1201.2,0,0,3930,0,95,0,
2.1867,-243.3,-200.4,-264.9,-534.6,-428.7,-629.1,-1198.5,0,0,3936,0,96,0,
2.1900,-241.5,-200.7,-270.9,-533.1,-426.3,-627.3,-1196.7,0,0,3942,0,97,0,
2.1933,-246.3,-195.0,-271.8,-535.5,-427.2,-634.2,-1204.5,0,0,3948,0,98,0,
2.1967,-261.6,-200.4,-276.3,-538.5,-413.7,-649.2,-1215.3,0,0,3954,0,99,0,
2.2000,-236.1,-183.3,-265.5,-531.0,-442.2,-612.6,-1188.9,0,0,3960,0,100,0,
2.2033,-245.1,-194.1,-268.5,-535.5,-435.9,-627.0,-1201.8,0,0,3966,0,101,0,
2.2067,-246.9,-184.8,-261.0,-532.2,-432.0,-618.9,-1186.8,0,0,3972,0,102,0,
2.2100,-245.4,-188.1,-268.8,-535.8,-432.3,-628.5,-1204.8,0,0,3978,0,103,0,
2.2133,-244.5,-186.9,-272.1,-537.0,-432.3,-625.8,-1198.2,0,0,3984,0,104,0,
2.2167,-249.0,-189.0,-273.6,-537.0,-431.7,-621.0,-1198.8,0,0,3990,0,105,0,
2.2200,-241.2,-191.1,-275.4,-533.7,-430.5,-623.7,-1186.8,0,0,3996,0,106,0,
2.2233,-251.7,-202.8,-275.4,-538.2,-432.0,-628.8,-1209.9,0,0,4002,0,107,0,
2.2267,-257.4,-218.7,-273.3,-536.4,-435.9,-634.8,-1211.1,0,0,4008,0,108,0,
2.2300,-247.8,-195.6,-261.3,-534.0,-431.7,-626.7,-1198.5,0,0,4014,0,109,0,
2.2333,-246.0,-189.9,-279.0,-534.0,-433.5,-626.7,-1198.5,0,0,4020,0,110,0,
2.2367,-242.7,-191.7,-277.8,-530.4,-426.9,-624.0,-1192.5,0,0,4026,0,111,0,
2.2400,-243.9,-195.3,-276.6,-533.4,-429.9,-627.3,-1197.6,0,0,4032,0,112,0,
2.2433,-248.4,-205.5,-283.2,-537.6,-432.6,-625.8,-1203.9,0,0,4038,0,113,0,
2.2467,-249.0,-204.9,-280.5,-536.7,-432.9,-629.1,-1200.3,0,0,4044,0,114,0,
2.2500,-240.0,-185.1,-272.4,-528.3,-429.3,-621.0,-1179.0,0,0,4050,0,115,0,
2.2533,-236.7,-174.0,-260.7,-524.4,-431.7,-623.7,-1179.6,0,0,4056,0,116,0,
2.2567,-244.8,-189.3,-268.5,-534.3,-433.5,-628.2,-1181.7,0,0,4062,0,117,0,
2.2600,-246.3,-192.6,-270.0,-533.7,-432.0,-635.1,-1198.2,0,0,4068,0,118,0,
2.2633,-245.1,-186.9,-266.1,-531.9,-432.9,-629.1,-1182.3,0,0,4074,0,119,0,
2.2667,-252.6,-179.4,-272.7,-531.3,-435.3,-630.3,-1196.7,0,0,4080,0,120,0,
2.2700,-251.4,-188.1,-262.2,-527.4,-431.1,-628.2,-1205.1,0,0,4086,0,121,0,
2.2733,-249.0,-189.0,-270.3,-526.8,-428.7,-626.4,-1193.1,0,0,4092,0,122,0,
2.2767,-254.1,-194.1,-278.1,-533.4,-417.6,-632.7,-1184.7,0,0,4098,0,123,0,
2.2800,-253.2,-191.1,-274.8,-530.1,-417.3,-636.0,-1180.5,0,0,4104,0,124,0,
2.2833,-231.9,-167.1,-257.1,-514.5,-435.9,-614.7,-1172.4,0,0,4110,0,125,0,
2.2867,-256.2,-189.0,-266.4,-523.8,-429.0,-630.3,-1192.8,0,0,4116,0,126,0,
2.2900,-234.6,-174.9,-256.5,-521.7,-425.4,-616.2,-1173.3,0,0,4122,0,127,0,
2.2933,-246.0,-185.7,-271.8,-523.5,-423.3,-620.1,-1177.5,0,0,4128,0,128,0,
2.2967,-257.4,-189.3,-272.1,-527.7,-428.1,-625.2,-1192.8,0,0,4134,0,129,0,
2.3000,-255.6,-190.8,-273.9,-524.4,-429.6,-627.6,-1194.0,0,0,4140,0,130,0,
2.3033,-252.9,-192.6,-272.1,-522.6,-426.3,-622.8,-1193.4,0,0,4146,0,131,0,
2.3067,-260.4,-192.3,-273.6,-525.9,-431.1,-628.2,-1193.4,0,0,4152,0,132,0,
2.3100,-255.0,-186.0,-268.5,-521.1,-433.5,-631.8,-1196.1,0,0,4158,0,133,0,
2.3133,-250.8,-180.0,-263.4,-520.2,-428.4,-627.3,-1183.5,0,0,4164,0,134,0,
2.3167,-252.9,-195.0,-259.2,-525.3,-429.9,-632.1,-1190.7,0,0,4170,0,135,0,
2.3200,-253.5,-184.5,-263.7,-519.9,-430.8,-625.2,-1184.1,0,0,4176,0,136,0,
2.3233,-249.9,-186.9,-267.6,-526.8,-432.0,-629.7,-1195.5,0,0,4182,0,137,0,
2.3267,-254.7,-194.4,-261.6,-524.4,-433.8,-628.2,-1191.6,0,0,4188,0,138,0,
2.3300,-251.4,-199.8,-268.5,-523.8,-435.9,-626.4,-1188.0,0,0,4194,0,139,0,
2.3333,-255.3,-182.7,-262.2,-523.2,-437.7,-629.1,-1191.3,0,0,4200,0,140,0,
2.3367,-251.1,-178.8,-268.2,-521.4,-434.7,-625.5,-1199.1,0,0,4206,0,141,0,
2.3400,-253.5,-178.5,-268.2,-522.3,-437.4,-628.8,-1197.0,0,0,4212,0,142,0,
2.3433,-262.5,-188.1,-270.3,-524.1,-438.6,-628.5,-1198.2,0,0,4218,0,143,0,
2.3467,-264.6,-194.7,-270.9,-527.1,-438.0,-634.8,-1198.2,0,0,4224,0,144,0,
2.3500,-258.9,-191.4,-264.0,-521.7,-441.6,-635.4,-1185.9,0,0,4230,0,145,0,
2.3533,-271.8,-192.3,-265.5,-526.5,-414.9,-647.1,-1203.0,0,0,4236,0,146,0,
2.3567,-264.0,-182.7,-259.2,-517.2,-441.0,-625.5,-1193.4,0,0,4242,0,147,0,
2.3600,-251.4,-191.4,-264.0,-519.6,-444.9,-628.2,-1195.8,0,0,4248,0,148,0,
2.3633,-257.4,-186.0,-261.6,-520.2,-441.0,-634.8,-1204.8,0,0,4254,0,149,0,
2.3667,-255.9,-188.4,-261.6,-518.4,-436.5,-635.1,-1200.3,0,0,4260,0,150,0,
2.3700,-251.4,-189.9,-260.7,-517.5,-434.1,-625.5,-1189.2,0,0,4266,0,151,0,
2.3733,-251.7,-180.9,-261.9,-519.3,-430.8,-625.2,-1182.6,0,0,4272,0,152,0,
2.3767,-252.9,-185.1,-262.2,-522.0,-435.9,-627.6,-1186.8,0,0,4278,0,153,0,
2.3800,-260.4,-191.4,-270.0,-526.8,-432.9,-630.9,-1197.9,0,0,4284,0,154,0,
2.3833,-255.9,-188.7,-273.0,-524.7,-431.1,-625.5,-1197.9,0,0,4290,0,155,0,
2.3867,-252.9,-186.9,-269.4,-522.3,-429.3,-624.9,-1192.5,0,0,4296,0,156,0,
2.3900,-250.2,-185.7,-263.7,-519.3,-427.2,-621.3,-1195.2,0,0,4302,0,157,0,
2.3933,-255.6,-184.2,-273.6,-524.7,-432.0,-630.0,-1199.1,0,0,4308,0,158,0,
2.3967,-255.6,-192.6,-261.0,-519.6,-428.1,-628.8,-1205.4,0,0,4314,0,159,0,
2.4000,-255.9,-185.1,-269.4,-515.4,-431.1,-630.0,-1201.2,0,0,4320,0,160,0,
2.4033,-250.5,-171.3,-269.7,-520.2,-426.6,-621.3,-1193.1,0,0,4326,0,161,0,
2.4067,-251.4,-178.8,-270.9,-523.8,-430.2,-623.1,-1192.2,0,0,4332,0,162,0,
2.4100,-256.8,-184.8,-269.7,-526.8,-431.7,-623.1,-1194.0,0,0,4338,0,163,0,
2.4133,-251.4,-187.8,-273.6,-525.9,-435.0,-634.5,-1199.1,0,0,4344,0,164,0,
2.4167,-263.7,-186.3,-273.0,-524.4,-435.3,-629.4,-1206.6,0,0,4350,0,165,0,
2.4200,-253.8,-189.3,-276.6,-523.8,-432.3,-627.6,-1198.2,0,0,4356,0,166,0,
2.4233,-260.4,-174.9,-270.0,-523.2,-432.6,-627.0,-1198.8,0,0,4362,0,167,0,
2.4267,-258.0,-171.0,-270.0,-520.2,-432.3,-626.7,-1195.2,0,0,4368,0,168,0,
2.4300,-257.1,-182.4,-272.7,-523.8,-429.6,-625.5,-1198.5,0,0,4374,0,169,0,
2.4333,-263.4,-192.0,-262.2,-519.0,-429.9,-625.8,-1196.7,0,0,4380,0,170,0,
2.4367,-269.4,-202.8,-267.0,-525.3,-414.6,-647.7,-1214.7,0,0,4386,0,171,0,
2.4400,-261.9,-190.8,-270.6,-522.6,-425.1,-627.0,-1190.4,0,0,4392,0,172,0,
2.4433,-242.4,-168.9,-260.1,-518.1,-439.8,-609.9,-1171.8,0,0,4398,0,173,0,
2.4467,-252.0,-177.6,-258.6,-519.3,-426.6,-619.5,-1181.4,0,0,4404,0,174,0,
2.4500,-251.7,-173.1,-260.7,-522.0,-431.4,-620.4,-1185.9,0,0,4410,0,175,0,
2.4533,-253.2,-168.6,-257.4,-520.5,-429.3,-622.2,-1175.7,0,0,4416,0,176,0,
2.4567,-256.2,-167.4,-259.2,-522.0,-431.4,-624.3,-1174.2,0,0,4422,0,177,0,
2.4600,-257.4,-166.2,-255.9,-520.5,-432.3,-626.4,-1180.5,0,0,4428,0,178,0,
2.4633,-262.8,-179.7,-259.5,-521.1,-427.5,-624.9,-1191.3,0,0,4434,0,179,0,
2.4667,-261.0,-178.2,-258.6,-520.8,-429.0,-629.4,-1186.8,0,0,4440,0,180,0,
2.4700,-258.6,-181.2,-264.9,-525.6,-430.2,-626.7,-1182.3,0,0,4446,0,181,0,
2.4733,-264.3,-183.3,-260.7,-524.1,-429.9,-633.0,-1182.0,0,0,4452,0,182,0,
2.4767,-269.7,-185.1,-265.2,-524.7,-425.1,-627.3,-1191.3,0,0,4458,0,183,0,
2.4800,-268.2,-188.1,-254.1,-522.9,-429.9,-624.3,-1188.0,0,0,4464,0,184,0,
2.4833,-267.3,-191.4,-267.0,-521.7,-429.6,-626.7,-1187.1,0,0,4470,0,185,0,
2.4867,-262.2,-179.7,-272.1,-520.8,-421.8,-625.2,-1185.0,0,0,4476,0,186,0,
2.4900,-260.1,-171.3,-262.5,-518.1,-426.6,-621.0,-1176.6,0,0,4482,0,187,0,
2.4933,-262.8,-166.2,-259.5,-516.3,-429.3,-625.2,-1180.5,0,0,4488,0,188,0,
2.4967,-271.8,-177.9,-265.8,-524.4,-433.8,-629.7,-1194.0,0,0,4494,0,189,0,
2.5000,-270.0,-174.3,-264.6,-526.2,-437.1,-629.4,-1183.8,0,0,4500,0,190,0,
2.5033,-266.4,-167.7,-258.6,-522.3,-430.2,-628.5,-1185.9,0,0,4506,0,191,0,
2.5067,-273.0,-171.0,-260.7,-523.5,-435.0,-631.5,-1186.2,0,0,4512,0,192,0,
2.5100,-275.4,-185.7,-275.4,-530.7,-412.8,-648.0,-1199.1,0,0,4518,0,193,0,
2.5133,-261.9,-171.9,-262.5,-519.9,-440.1,-614.7,-1180.5,0,0,4524,0,194,0,
2.5167,-265.8,-167.4,-267.6,-520.2,-436.5,-616.2,-1178.4,0,0,4530,0,195,0,
2.5200,-264.6,-177.6,-266.7,-518.1,-433.5,-624.3,-1182.3,0,0,4536,0,196,0,
2.5233,-265.8,-160.2,-258.9,-521.7,-432.0,-625.2,-1177.8,0,0,4542,0,197,0,
2.5267,-271.2,-173.7,-258.3,-526.2,-438.3,-628.8,-1187.1,0,0,4548,0,198,0,
2.5300,-269.4,-177.3,-268.2,-526.2,-432.6,-626.1,-1182.3,0,0,4554,0,199,0,
2.5333,-266.1,-178.5,-266.1,-523.8,-431.1,-623.1,-1190.7,0,0,4560,0,200,0,
2.5367,-268.2,-177.6,-263.1,-520.8,-432.6,-624.0,-1190.4,0,0,4566,0,201,0,
2.5400,-270.0,-178.5,-261.6,-522.6,-431.4,-631.5,-1188.9,0,0,4572,0,202,0,
2.5433,-265.8,-171.0,-265.5,-524.7,-430.5,-625.2,-1185.6,0,0,4578,0,203,0,
2.5467,-265.5,-168.0,-259.2,-522.9,-426.9,-617.7,-1182.9,0,0,4584,0,204,0,
2.5500,-264.6,-170.7,-262.8,-521.7,-426.6,-620.7,-1182.0,0,0,4590,0,205,0,
2.5533,-259.2,-162.0,-256.5,-515.7,-417.9,-604.5,-1177.8,0,0,4596,0,206,0,
2.5567,-267.6,-171.3,-253.5,-517.5,-425.7,-622.5,-1184.1,0,0,4602,0,207,0,
2.5600,-264.9,-169.5,-269.1,-522.9,-423.6,-624.3,-1177.8,0,0,4608,0,208,0,
2.5633,-264.9,-158.7,-260.4,-522.0,-426.9,-618.6,-1181.1,0,0,4614,0,209,0,
2.5667,-265.2,-163.8,-255.6,-517.8,-426.0,-620.4,-1178.7,0,0,4620,0,210,0,
2.5700,-261.3,-167.7,-255.3,-515.7,-424.2,-618.9,-1181.4,0,0,4626,0,211,0,
2.5733,-267.9,-163.5,-247.5,-516.0,-423.9,-612.3,-1164.9,0,0,4632,0,212,0,
2.5767,-260.4,-167.1,-246.9,-515.1,-424.8,-619.5,-1169.7,0,0,4638,0,213,0,
2.5800,-267.3,-171.3,-243.9,-513.0,-420.6,-613.2,-1173.3,0,0,4644,0,214,0,
2.5833,-258.3,-150.9,-238.8,-510.6,-421.5,-613.2,-1173.9,0,0,4650,0,215,0,
2.5867,-262.5,-159.0,-251.7,-515.1,-420.9,-609.0,-1164.3,0,0,4656,0,216,0,
2.5900,-257.4,-154.2,-242.1,-512.7,-422.7,-612.0,-1164.6,0,0,4662,0,217,0,
2.5933,-260.7,-164.1,-249.9,-516.9,-423.9,-608.4,-1170.3,0,0,4668,0,218,0,
2.5967,-266.4,-154.2,-258.6,-518.1,-428.1,-614.1,-1174.8,0,0,4674,0,219,0,
2.6000,-267.0,-152.1,-252.3,-519.3,-423.3,-606.3,-1175.4,0,0,4680,0,220,0,
2.6033,-260.7,-156.6,-256.5,-520.5,-421.2,-612.0,-1173.6,0,0,4686,0,221,0,
2.6067,-258.9,-155.4,-249.0,-518.7,-418.8,-607.8,-1168.2,0,0,4692,0,222,0,
2.6100,-260.4,-153.6,-244.2,-519.0,-422.1,-612.3,-1173.0,0,0,4698,0,223,0,
2.6133,-270.3,-172.2,-258.3,-526.5,-411.9,-628.5,-1184.1,0,0,4704,0,224,0,
2.6167,-267.3,-169.2,-249.3,-520.2,-411.6,-617.1,-1184.4,0,0,4710,0,225,0,
2.6200,-248.7,-153.3,-241.5,-511.2,-429.3,-591.9,-1157.1,0,0,4716,0,226,0,
2.6233,-258.9,-165.9,-250.5,-521.4,-420.0,-609.3,-1171.8,0,0,4722,0,227,0,
2.6267,-262.2,-163.2,-249.9,-520.8,-426.3,-612.6,-1170.9,0,0,4728,0,228,0,
2.6300,-255.3,-162.9,-250.5,-516.3,-420.3,-607.2,-1169.4,0,0,4734,0,229,0,
2.6333,-253.2,-159.9,-248.7,-516.3,-418.5,-604.5,-1171.2,0,0,4740,0,230,0,
2.6367,-255.0,-162.9,-248.1,-515.7,-423.3,-601.5,-1170.9,0,0,4746,0,231,0,
2.6400,-255.9,-166.5,-243.6,-516.6,-421.5,-602.4,-1171.5,0,0,4752,0,232,0,
2.6433,-258.0,-161.1,-246.0,-513.6,-421.2,-603.0,-1164.9,0,0,4758,0,233,0,
2.6467,-251.7,-156.0,-243.9,-515.1,-424.2,-608.1,-1179.6,0,0,4764,0,234,0,
2.6500,-252.9,-154.2,-249.0,-518.1,-425.7,-605.1,-1161.0,0,0,4770,0,235,0,
2.6533,-259.2,-159.0,-250.8,-518.1,-424.8,-600.9,-1161.3,0,0,4776,0,236,0,
2.6567,-249.6,-158.4,-245.4,-516.0,-424.2,-607.2,-1168.5,0,0,4782,0,237,0,
2.6600,-251.4,-161.4,-249.3,-516.3,-423.0,-606.6,-1164.0,0,0,4788,0,238,0,
2.6633,-246.9,-159.0,-246.6,-515.4,-421.5,-601.5,-1167.9,0,0,4794,0,239,0,
2.6667,-252.9,-171.0,-253.5,-518.1,-423.6,-614.1,-1173.0,0,0,4800,0,240,0,
2.6700,-249.9,-163.5,-251.7,-515.4,-422.7,-607.2,-1174.2,0,0,4806,0,241,0,
2.6733,-242.7,-159.6,-245.4,-514.8,-420.3,-609.9,-1164.3,0,0,4812,0,242,0,
2.6767,-250.5,-172.5,-245.7,-519.0,-420.6,-605.1,-1171.2,0,0,4818,0,243,0,
2.6800,-261.3,-173.7,-249.6,-525.0,-426.6,-611.4,-1179.9,0,0,4824,0,244,0,
2.6833,-250.8,-167.7,-262.5,-522.6,-428.7,-617.1,-1171.5,0,0,4830,0,245,0,
2.6867,-240.0,-156.0,-256.5,-520.8,-418.5,-604.5,-1157.4,0,0,4836,0,246,0,
2.6900,-248.1,-156.9,-249.6,-519.6,-422.4,-609.0,-1165.8,0,0,4842,0,247,0,
2.6933,-260.7,-176.1,-260.4,-529.5,-409.8,-632.1,-1177.8,0,0,4848,0,248,0,
2.6967,-248.4,-166.5,-249.3,-518.7,-424.2,-608.4,-1162.5,0,0,4854,0,249,0,
2.7000,-241.5,-161.7,-248.4,-513.6,-433.2,-600.6,-1143.6,0,0,4860,0,250,0,
2.7033,-239.4,-162.0,-248.1,-514.2,-423.6,-608.7,-1158.3,0,0,4866,0,251,0,
2.7067,-250.2,-173.7,-246.6,-518.4,-426.6,-612.9,-1151.4,0,0,4872,0,252,0,
2.7100,-258.0,-178.2,-246.6,-519.9,-427.2,-613.8,-1148.7,0,0,4878,0,253,0,
2.7133,-257.4,-162.0,-250.2,-522.9,-425.7,-612.3,-1145.7,0,0,4884,0,254,0,
2.7167,-257.7,-157.2,-254.4,-525.3,-432.0,-623.1,-1170.3,0,0,4890,0,255,0,
2.7200,-262.2,-168.0,-247.5,-519.9,-426.6,-618.3,-1157.1,0,0,4896,0,0,0,
2.7233,-259.2,-173.4,-256.2,-519.3,-429.0,-622.5,-1160.1,0,0,4902,0,1,0,
2.7267,-259.5,-178.5,-261.9,-520.8,-426.3,-618.9,-1168.5,0,0,4908,0,2,0,
2.7300,-252.9,-162.6,-256.8,-519.9,-428.7,-627.3,-1158.0,0,0,4914,0,3,0,
2.7333,-249.6,-162.9,-252.0,-519.0,-423.9,-620.4,-1164.3,0,0,4920,0,4,0,
2.7367,-258.0,-173.7,-251.7,-517.5,-426.0,-622.2,-1160.4,0,0,4926,0,5,0,
2.7400,-252.9,-164.4,-250.8,-519.3,-430.2,-619.2,-1151.4,0,0,4932,0,6,0,
2.7433,-249.0,-160.2,-246.3,-519.6,-427.2,-619.8,-1140.6,0,0,4938,0,7,0,
2.7467,-257.4,-165.0,-258.0,-525.0,-431.1,-620.7,-1152.9,0,0,4944,0,8,0,
2.7500,-262.5,-171.6,-260.4,-524.7,-429.9,-621.0,-1155.0,0,0,4950,0,9,0,
2.7533,-258.3,-176.7,-256.2,-518.4,-429.3,-623.1,-1162.2,0,0,4956,0,10,0,
2.7567,-250.2,-172.8,-245.1,-519.6,-427.2,-615.0,-1140.6,0,0,4962,0,11,0,
2.7600,-255.0,-174.9,-250.5,-516.6,-426.6,-615.6,-1131.6,0,0,4968,0,12,0,
2.7633,-260.7,-167.7,-251.4,-516.6,-425.1,-612.9,-1126.8,0,0,4974,0,13,0,
2.7667,-260.1,-165.3,-249.6,-516.9,-430.8,-621.6,-1137.0,0,0,4980,0,14,0,
2.7700,-249.0,-159.0,-250.5,-521.1,-430.2,-616.8,-1134.3,0,0,4986,0,15,0,
2.7733,-254.4,-169.2,-248.1,-519.0,-431.4,-625.5,-1140.6,0,0,4992,0,16,0,
2.7767,-255.6,-173.7,-246.9,-518.1,-425.4,-609.0,-1136.1,0,0,4998,0,17,0,
2.7800,-257.7,-168.3,-248.7,-514.2,-429.3,-621.9,-1134.6,0,0,5004,0,18,0,
2.7833,-255.3,-165.9,-246.6,-513.6,-428.4,-615.0,-1135.5,0,0,5010,0,19,0,
2.7867,-262.8,-165.6,-254.1,-518.1,-408.9,-632.1,-1149.3,0,0,5016,0,20,0,
2.7900,-246.3,-147.3,-240.6,-508.5,-420.6,-606.3,-1124.1,0,0,5022,0,21,0,
2.7933,-246.3,-144.0,-230.4,-510.0,-435.3,-609.3,-1127.4,0,0,5028,0,22,0,
2.7967,-256.2,-170.7,-243.6,-518.4,-429.3,-616.2,-1138.8,0,0,5034,0,23,0,
2.8000,-250.5,-168.9,-248.1,-517.8,-429.3,-611.7,-1128.9,0,0,5040,0,24,0,
2.8033,-246.0,-171.0,-240.9,-518.7,-427.2,-612.3,-1132.8,0,0,5046,0,25,0,
2.8067,-247.5,-166.8,-237.6,-516.0,-423.9,-609.0,-1124.1,0,0,5052,0,26,0,
2.8100,-250.5,-165.3,-237.3,-516.9,-426.3,-609.6,-1125.6,0,0,5058,0,27,0,
2.8133,-253.5,-152.1,-238.5,-519.9,-429.0,-615.0,-1128.0,0,0,5064,0,28,0,
2.8167,-250.5,-155.7,-235.8,-516.6,-426.3,-611.1,-1127.1,0,0,5070,0,29,0,
2.8200,-242.7,-154.5,-237.0,-514.2,-421.2,-606.9,-1119.6,0,0,5076,0,30,0,
2.8233,-250.5,-160.8,-239.1,-516.3,-423.0,-607.5,-1122.9,0,0,5082,0,31,0,
2.8267,-261.3,-162.9,-247.8,-524.4,-428.1,-612.6,-1135.5,0,0,5088,0,32,0,
2.8300,-258.6,-168.3,-247.2,-519.9,-426.3,-615.0,-1135.8,0,0,5094,0,33,0,
2.8333,-262.8,-174.3,-242.1,-520.5,-429.3,-610.8,-1129.5,0,0,5100,0,34,0,
2.8367,-248.4,-168.0,-234.3,-514.5,-418.5,-606.0,-1123.2,0,0,5106,0,35,0,
2.8400,-246.0,-155.4,-247.5,-518.1,-416.7,-601.2,-1116.9,0,0,5112,0,36,0,
2.8433,-252.3,-163.2,-251.4,-520.8,-418.5,-603.6,-1112.7,0,0,5118,0,37,0,
2.8467,-250.5,-174.9,-244.8,-519.6,-420.3,-605.4,-1113.9,0,0,5124,0,38,0,
2.8500,-248.1,-164.7,-240.9,-518.1,-417.6,-600.3,-1123.5,0,0,5130,0,39,0,
2.8533,-252.9,-168.3,-246.6,-520.2,-416.1,-607.2,-1117.8,0,0,5136,0,40,0,
2.8567,-255.9,-159.3,-243.9,-520.2,-420.3,-611.7,-1121.4,0,0,5142,0,41,0,
2.8600,-254.1,-169.2,-251.1,-525.0,-421.8,-615.3,-1126.2,0,0,5148,0,42,0,
2.8633,-247.5,-154.8,-237.6,-523.2,-420.3,-604.2,-1116.9,0,0,5154,0,43,0,
2.8667,-249.6,-163.8,-242.7,-522.3,-422.7,-609.0,-1122.9,0,0,5160,0,44,0,
2.8700,-260.4,-183.9,-254.4,-524.1,-413.4,-622.5,-1130.1,0,0,5166,0,45,0,
2.8733,-263.1,-180.3,-257.7,-526.8,-414.6,-624.3,-1130.1,0,0,5172,0,46,0,
2.8767,-253.8,-173.1,-243.9,-519.3,-434.7,-589.2,-1115.7,0,0,5178,0,47,0,
2.8800,-254.4,-177.6,-255.0,-521.1,-425.1,-606.3,-1117.2,0,0,5184,0,48,0,
2.8833,-246.9,-169.2,-249.3,-516.0,-424.5,-603.9,-1116.3,0,0,5190,0,49,0,
2.8867,-246.0,-171.6,-241.8,-513.6,-419.7,-601.8,-1116.3,0,0,5196,0,50,0,
2.8900,-251.4,-171.3,-241.8,-516.9,-423.6,-596.7,-1107.9,0,0,5202,0,51,0,
2.8933,-254.1,-162.3,-242.4,-516.6,-426.6,-607.2,-1116.0,0,0,5208,0,52,0,
2.8967,-250.5,-158.1,-245.4,-519.3,-425.1,-609.3,-1124.4,0,0,5214,0,53,0,
2.9000,-253.5,-165.9,-243.9,-518.7,-423.6,-603.6,-1115.7,0,0,5220,0,54,0,
2.9033,-253.2,-169.8,-242.4,-513.9,-425.4,-609.0,-1117.2,0,0,5226,0,55,0,
2.9067,-252.9,-169.2,-241.8,-516.0,-423.6,-602.4,-1114.8,0,0,5232,0,56,0,
2.9100,-246.6,-170.1,-245.7,-514.8,-425.7,-600.3,-1118.4,0,0,5238,0,57,0,
2.9133,-251.1,-165.3,-232.2,-514.8,-417.6,-595.5,-1124.4,0,0,5244,0,58,0,
2.9167,-246.9,-166.2,-234.6,-513.6,-420.9,-601.2,-1110.9,0,0,5250,0,59,0,
2.9200,-238.8,-158.7,-246.3,-512.4,-415.5,-596.7,-1104.3,0,0,5256,0,60,0,
2.9233,-248.1,-165.3,-241.8,-513.6,-423.0,-601.5,-1108.2,0,0,5262,0,61,0,
2.9267,-246.9,-162.3,-243.6,-513.3,-424.8,-605.4,-1107.0,0,0,5268,0,62,0,
2.9300,-244.2,-161.7,-246.6,-513.6,-423.6,-605.7,-1110.3,0,0,5274,0,63,0,
2.9333,-243.3,-158.4,-243.0,-510.3,-422.4,-598.5,-1109.4,0,0,5280,0,64,0,
2.9367,-241.8,-156.9,-246.3,-508.2,-424.8,-597.6,-1102.8,0,0,5286,0,65,0,
2.9400,-240.6,-152.4,-243.6,-507.9,-428.1,-595.2,-1105.8,0,0,5292,0,66,0,
2.9433,-245.4,-155.1,-247.2,-512.7,-420.6,-606.6,-1106.7,0,0,5298,0,67,0,
2.9467,-259.2,-163.5,-253.8,-516.9,-416.4,-617.7,-1117.2,0,0,5304,0,68,0,
2.9500,-238.8,-151.5,-237.3,-502.8,-440.1,-585.9,-1095.3,0,0,5310,0,69,0,
2.9533,-241.8,-157.2,-250.8,-508.2,-425.1,-603.0,-1105.8,0,0,5316,0,70,0,
2.9567,-238.8,-150.6,-246.0,-507.3,-428.1,-597.0,-1099.8,0,0,5322,0,71,0,
2.9600,-253.2,-168.9,-253.5,-514.8,-428.1,-610.2,-1112.7,0,0,5328,0,72,0,
2.9633,-240.6,-154.5,-247.8,-510.0,-428.4,-598.8,-1089.9,0,0,5334,0,73,0,
2.9667,-240.3,-155.4,-247.5,-508.8,-429.0,-603.9,-1092.6,0,0,5340,0,74,0,
2.9700,-240.0,-161.1,-249.6,-506.4,-427.5,-602.7,-1101.0,0,0,5346,0,75,0,
2.9733,-237.6,-156.0,-243.6,-507.3,-427.2,-601.8,-1093.2,0,0,5352,0,76,0,
2.9767,-244.8,-163.8,-243.0,-511.2,-424.5,-602.4,-1109.4,0,0,5358,0,77,0,
2.9800,-250.2,-168.3,-243.0,-511.5,-426.9,-596.4,-1113.0,0,0,5364,0,78,0,
2.9833,-245.7,-161.1,-251.1,-508.5,-430.2,-609.3,-1111.2,0,0,5370,0,79,0,
2.9867,-241.8,-155.7,-253.5,-512.4,-425.4,-596.1,-1102.5,0,0,5376,0,80,0,
2.9900,-241.8,-155.7,-247.2,-513.0,-427.2,-603.9,-1116.0,0,0,5382,0,81,0,
2.9933,-242.7,-164.7,-239.7,-510.3,-422.7,-596.7,-1111.8,0,0,5388,0,82,0,
2.9967,-238.5,-161.4,-246.9,-510.0,-425.1,-600.9,-1114.2,0,0,5394,0,83,0,
3.0000,-241.8,-156.0,-247.2,-512.7,-427.5,-598.2,-1110.6,0,0,5400,0,84,0,
3.0033,-241.5,-156.6,-243.6,-513.0,-425.4,-595.2,-1104.3,0,0,5406,0,85,0,
3.0067,-245.1,-170.4,-251.7,-516.6,-426.9,-601.8,-1106.7,0,0,5412,0,86,0,
3.0100,-239.4,-168.9,-245.7,-514.5,-423.3,-600.9,-1102.8,0,0,5418,0,87,0,
3.0133,-248.4,-174.3,-246.0,-514.2,-424.8,-603.6,-1105.8,0,0,5424,0,88,0,
3.0167,-248.1,-169.2,-241.8,-512.1,-422.7,-599.1,-1107.9,0,0,5430,0,89,0,
3.0200,-247.5,-168.0,-249.6,-514.5,-427.5,-594.6,-1107.6,0,0,5436,0,90,0,
3.0233,-249.3,-160.5,-243.3,-515.1,-422.7,-597.0,-1097.7,0,0,5442,0,91,0,
3.0267,-252.6,-156.0,-249.0,-512.1,-429.3,-599.7,-1105.8,0,0,5448,0,92,0,
3.0300,-244.2,-155.4,-243.6,-510.6,-420.6,-597.0,-1103.4,0,0,5454,0,93,0,
3.0333,-247.8,-169.8,-249.0,-510.9,-416.4,-602.4,-1113.3,0,0,5460,0,94,0,
3.0367,-261.3,-176.7,-262.5,-517.5,-409.5,-618.6,-1125.9,0,0,5466,0,95,0,
3.0400,-235.2,-153.0,-242.7,-507.9,-436.8,-581.4,-1098.6,0,0,5472,0,96,0,
3.0433,-243.9,-152.4,-242.1,-509.1,-423.0,-591.9,-1094.4,0,0,5478,0,97,0,
3.0467,-244.5,-162.9,-243.9,-509.4,-425.4,-592.5,-1107.9,0,0,5484,0,98,0,
3.0500,-244.5,-164.1,-238.5,-510.3,-424.2,-601.8,-1115.1,0,0,5490,0,99,0,
3.0533,-248.1,-163.8,-238.2,-506.7,-421.2,-589.5,-1112.1,0,0,5496,0,100,0,
3.0567,-247.8,-161.7,-242.4,-513.3,-427.8,-603.3,-1106.4,0,0,5502,0,101,0,
3.0600,-247.2,-160.8,-243.3,-511.8,-426.9,-600.6,-1107.9,0,0,5508,0,102,0,
3.0633,-244.5,-150.9,-238.2,-512.4,-424.8,-596.7,-1103.1,0,0,5514,0,103,0,
3.0667,-248.1,-161.4,-237.6,-514.8,-425.4,-602.7,-1111.5,0,0,5520,0,104,0,
3.0700,-243.6,-157.2,-229.5,-511.2,-421.8,-593.7,-1099.8,0,0,5526,0,105,0,
3.0733,-246.9,-163.8,-240.3,-515.4,-422.7,-600.9,-1107.0,0,0,5532,0,106,0,
3.0767,-247.8,-159.6,-242.4,-518.1,-417.9,-582.3,-1115.1,0,0,5538,0,107,0,
3.0800,-246.6,-161.7,-242.1,-518.4,-425.1,-598.8,-1111.8,0,0,5544,0,108,0,
3.0833,-249.3,-167.1,-240.0,-519.9,-423.9,-595.5,-1098.9,0,0,5550,0,109,0,
3.0867,-247.5,-173.4,-239.1,-518.4,-426.0,-600.0,-1096.5,0,0,5556,0,110,0,
3.0900,-237.6,-161.7,-234.0,-513.9,-420.6,-589.8,-1093.5,0,0,5562,0,111,0,
3.0933,-240.9,-162.3,-234.0,-516.0,-417.6,-594.9,-1101.3,0,0,5568,0,112,0,
3.0967,-242.4,-160.8,-230.7,-513.9,-421.5,-597.6,-1106.1,0,0,5574,0,113,0,
3.1000,-241.2,-157.5,-239.1,-516.6,-419.1,-593.4,-1098.3,0,0,5580,0,114,0,
3.1033,-234.3,-153.6,-243.3,-513.6,-417.6,-592.5,-1101.0,0,0,5586,0,115,0,
3.1067,-243.0,-158.1,-237.3,-516.3,-426.3,-597.3,-1101.6,0,0,5592,0,116,0,
3.1100,-253.5,-163.5,-241.2,-520.2,-418.8,-608.4,-1108.8,0,0,5598,0,117,0,
3.1133,-253.8,-166.5,-240.6,-518.1,-417.3,-606.9,-1113.0,0,0,5604,0,118,0,
3.1167,-236.7,-149.1,-229.8,-504.9,-438.0,-575.1,-1090.5,0,0,5610,0,119,0,
3.1200,-239.1,-151.8,-243.9,-510.3,-420.9,-588.9,-1100.7,0,0,5616,0,120,0,
3.1233,-234.6,-144.9,-228.0,-507.9,-421.5,-590.7,-1089.6,0,0,5622,0,121,0,
3.1267,-239.4,-164.7,-233.1,-514.2,-420.6,-594.3,-1106.1,0,0,5628,0,122,0,
3.1300,-240.9,-165.9,-237.3,-514.5,-420.9,-593.4,-1101.0,0,0,5634,0,123,0,
3.1333,-237.3,-162.0,-231.6,-510.9,-417.3,-591.9,-1094.7,0,0,5640,0,124,0,
3.1367,-236.1,-158.4,-230.4,-511.5,-418.2,-589.5,-1098.3,0,0,5646,0,125,0,
3.1400,-246.6,-171.3,-233.1,-514.8,-417.6,-591.9,-1093.5,0,0,5652,0,126,0,
3.1433,-238.5,-171.9,-233.7,-514.5,-419.7,-593.1,-1093.8,0,0,5658,0,127,0,
3.1467,-236.7,-162.9,-237.6,-514.2,-420.3,-592.5,-1092.6,0,0,5664,0,128,0,
3.1500,-233.1,-153.6,-226.8,-510.3,-415.8,-589.5,-1088.1,0,0,5670,0,129,0,
3.1533,-238.2,-159.0,-229.8,-512.4,-416.7,-589.5,-1087.2,0,0,5676,0,130,0,
3.1567,-238.2,-155.7,-233.1,-512.1,-417.9,-589.2,-1098.0,0,0,5682,0,131,0,
3.1600,-235.8,-148.5,-230.7,-508.8,-416.7,-585.9,-1092.0,0,0,5688,0,132,0,
3.1633,-243.3,-156.6,-229.8,-513.3,-414.3,-589.5,-1098.9,0,0,5694,0,133,0,
3.1667,-241.8,-151.8,-233.7,-513.3,-416.1,-589.5,-1091.7,0,0,5700,0,134,0,
3.1700,-240.9,-153.0,-231.6,-509.7,-411.9,-585.3,-1095.0,0,0,5706,0,135,0,
3.1733,-247.5,-163.8,-234.3,-511.5,-415.8,-588.3,-1097.7,0,0,5712,0,136,0,
3.1767,-246.0,-171.9,-235.8,-511.2,-415.8,-591.6,-1106.4,0,0,5718,0,137,0,
3.1800,-238.5,-160.2,-233.1,-507.0,-414.3,-586.2,-1096.5,0,0,5724,0,138,0,
3.1833,-242.4,-170.4,-234.0,-511.5,-417.6,-585.0,-1104.3,0,0,5730,0,139,0,
3.1867,-243.3,-162.3,-238.2,-513.3,-415.8,-590.7,-1099.8,0,0,5736,0,140,0,
3.1900,-243.6,-164.4,-228.9,-513.9,-420.0,-586.8,-1101.3,0,0,5742,0,141,0,
3.1933,-244.5,-169.5,-231.3,-515.7,-422.7,-597.3,-1099.8,0,0,5748,0,142,0,
3.1967,-236.7,-166.5,-228.9,-509.4,-417.9,-591.9,-1098.0,0,0,5754,0,143,0,
3.2000,-252.6,-171.9,-251.1,-519.3,-401.7,-612.9,-1112.7,0,0,5760,0,144,0,
3.2033,-233.7,-153.6,-226.2,-506.1,-424.2,-579.6,-1098.3,0,0,5766,0,145,0,
3.2067,-230.4,-151.8,-224.4,-506.1,-419.4,-582.6,-1098.3,0,0,5772,0,146,0,
3.2100,-239.4,-162.0,-230.7,-509.7,-419.4,-583.8,-1095.6,0,0,5778,0,147,0,
3.2133,-232.2,-151.8,-227.1,-509.1,-411.6,-582.9,-1094.7,0,0,5784,0,148,0,
3.2167,-240.0,-149.4,-221.4,-506.4,-413.1,-576.6,-1083.6,0,0,5790,0,149,0,
3.2200,-233.1,-160.8,-227.4,-509.7,-412.8,-582.6,-1093.8,0,0,5796,0,150,0,
3.2233,-242.1,-173.1,-229.2,-513.3,-417.0,-587.1,-1096.8,0,0,5802,0,151,0,
3.2267,-243.3,-173.4,-228.3,-509.1,-414.3,-588.3,-1103.1,0,0,5808,0,152,0,
3.2300,-237.0,-154.5,-229.2,-511.8,-416.4,-590.1,-1098.9,0,0,5814,0,153,0,
3.2333,-238.2,-147.9,-224.4,-511.5,-420.0,-590.7,-1105.8,0,0,5820,0,154,0,
3.2367,-235.8,-146.1,-229.8,-508.8,-412.5,-584.7,-1100.1,0,0,5826,0,155,0,
3.2400,-237.9,-152.7,-228.6,-511.2,-415.2,-583.5,-1101.9,0,0,5832,0,156,0,
3.2433,-238.5,-164.4,-227.7,-508.2,-414.3,-588.0,-1116.6,0,0,5838,0,157,0,
3.2467,-238.2,-154.5,-223.5,-507.9,-417.6,-585.3,-1103.1,0,0,5844,0,158,0,
3.2500,-250.2,-164.7,-236.1,-512.1,-418.2,-588.9,-1114.2,0,0,5850,0,159,0,
3.2533,-249.3,-163.8,-242.7,-510.0,-418.8,-588.0,-1114.8,0,0,5856,0,160,0,
3.2567,-237.6,-153.9,-234.9,-513.0,-421.8,-587.4,-1107.9,0,0,5862,0,161,0,
3.2600,-233.1,-156.3,-230.4,-508.5,-418.2,-587.4,-1102.5,0,0,5868,0,162,0,
3.2633,-243.0,-160.5,-230.4,-509.4,-420.0,-594.9,-1114.5,0,0,5874,0,163,0,
3.2667,-242.7,-162.6,-233.1,-509.7,-412.5,-585.9,-1122.9,0,0,5880,0,164,0,
3.2700,-242.4,-156.0,-234.9,-508.2,-410.7,-601.5,-1107.9,0,0,5886,0,165,0,
3.2733,-249.0,-159.0,-235.5,-510.3,-404.4,-603.0,-1122.3,0,0,5892,0,166,0,
3.2767,-237.9,-158.7,-230.4,-509.1,-434.7,-584.4,-1109.7,0,0,5898,0,167,0,
3.2800,-241.5,-157.5,-235.2,-511.2,-421.8,-593.1,-1112.7,0,0,5904,0,168,0,
3.2833,-231.6,-156.0,-230.7,-509.4,-421.5,-590.7,-1114.5,0,0,5910,0,169,0,
3.2867,-233.7,-160.8,-232.8,-510.3,-419.1,-590.7,-1121.4,0,0,5916,0,170,0,
3.2900,-225.6,-169.2,-231.9,-510.0,-417.3,-583.2,-1106.4,0,0,5922,0,171,0,
3.2933,-230.7,-173.1,-236.4,-512.1,-419.1,-586.2,-1113.9,0,0,5928,0,172,0,
3.2967,-231.3,-166.8,-240.3,-514.8,-418.2,-588.6,-1107.9,0,0,5934,0,173,0,
3.3000,-232.5,-157.5,-232.8,-508.8,-414.9,-588.6,-1111.2,0,0,5940,0,174,0,
3.3033,-226.2,-150.6,-229.2,-507.9,-413.4,-583.8,-1112.4,0,0,5946,0,175,0,
3.3067,-235.5,-150.3,-220.5,-507.0,-414.3,-588.3,-1100.7,0,0,5952,0,176,0,
3.3100,-237.6,-165.3,-220.5,-505.5,-413.7,-587.4,-1109.7,0,0,5958,0,177,0,
3.3133,-226.2,-160.8,-225.6,-499.5,-414.3,-591.0,-1098.6,0,0,5964,0,178,0,
3.3167,-230.1,-154.5,-229.5,-503.1,-412.8,-584.7,-1102.2,0,0,5970,0,179,0,
3.3200,-233.7,-158.4,-228.0,-501.9,-415.8,-590.4,-1108.8,0,0,5976,0,180,0,
3.3233,-235.5,-155.1,-228.3,-506.4,-415.2,-587.7,-1103.1,0,0,5982,0,181,0,
3.3267,-240.6,-154.2,-231.9,-506.1,-417.9,-596.1,-1115.7,0,0,5988,0,182,0,
3.3300,-244.8,-161.4,-240.9,-507.9,-417.0,-594.6,-1118.7,0,0,5994,0,183,0,
3.3333,-237.9,-162.0,-232.5,-503.7,-418.5,-594.0,-1107.3,0,0,6000,0,184,0,
3.3367,-238.5,-167.4,-237.9,-506.4,-420.9,-592.2,-1111.2,0,0,6006,0,185,0,
3.3400,-239.4,-167.4,-231.3,-501.6,-419.1,-595.8,-1119.6,0,0,6012,0,186,0,
3.3433,-234.3,-162.6,-229.5,-501.0,-419.1,-597.6,-1114.8,0,0,6018,0,187,0,
3.3467,-242.4,-156.9,-231.3,-501.0,-415.8,-589.5,-1103.4,0,0,6024,0,188,0,
3.3500,-230.7,-162.0,-235.8,-502.5,-405.0,-595.8,-1111.8,0,0,6030,0,189,0,
3.3533,-236.1,-162.6,-230.7,-504.9,-400.2,-600.6,-1117.5,0,0,6036,0,190,0,
3.3567,-225.3,-142.5,-220.8,-494.1,-428.4,-575.1,-1087.5,0,0,6042,0,191,0,
3.3600,-231.9,-148.5,-231.0,-501.9,-417.0,-588.0,-1103.4,0,0,6048,0,192,0,
3.3633,-224.7,-144.3,-221.7,-501.9,-411.0,-577.5,-1101.0,0,0,6054,0,193,0,
3.3667,-235.2,-162.0,-227.4,-507.3,-411.3,-580.2,-1117.2,0,0,6060,0,194,0,
3.3700,-225.6,-154.2,-222.0,-501.6,-412.5,-585.9,-1100.7,0,0,6066,0,195,0,
3.3733,-226.8,-152.4,-226.8,-507.0,-411.0,-587.7,-1098.6,0,0,6072,0,196,0,
3.3767,-233.4,-160.2,-229.8,-509.7,-415.2,-585.6,-1108.8,0,0,6078,0,197,0,
3.3800,-233.4,-162.3,-228.0,-504.6,-412.2,-589.5,-1117.8,0,0,6084,0,198,0,
3.3833,-239.7,-153.0,-229.8,-503.7,-411.9,-597.0,-1113.9,0,0,6090,0,199,0,
3.3867,-239.1,-156.6,-234.9,-505.8,-414.9,-598.2,-1112.1,0,0,6096,0,200,0,
3.3900,-241.8,-165.3,-238.8,-506.4,-416.1,-594.9,-1112.7,0,0,6102,0,201,0,
3.3933,-240.0,-164.7,-229.5,-502.5,-414.0,-592.8,-1113.3,0,0,6108,0,202,0,
3.3967,-242.4,-175.8,-225.9,-502.2,-411.9,-594.3,-1112.1,0,0,6114,0,203,0,
3.4000,-240.9,-175.5,-233.4,-504.3,-411.9,-593.1,-1113.9,0,0,6120,0,204,0,
3.4033,-244.8,-163.8,-233.1,-503.7,-409.5,-589.2,-1112.4,0,0,6126,0,205,0,
3.4067,-240.9,-165.3,-232.5,-508.2,-415.2,-601.5,-1124.1,0,0,6132,0,206,0,
3.4100,-264.6,-184.2,-245.7,-515.1,-402.0,-610.2,-1141.2,0,0,6138,0,207,0,
3.4133,-239.7,-163.5,-238.5,-504.0,-428.1,-579.9,-1113.9,0,0,6144,0,208,0,
3.4167,-244.2,-177.6,-245.4,-507.9,-419.4,-591.3,-1122.6,0,0,6150,0,209,0,
3.4200,-242.7,-162.6,-242.4,-504.6,-417.0,-587.4,-1114.8,0,0,6156,0,210,0,
3.4233,-245.1,-172.8,-230.4,-503.1,-416.4,-588.0,-1115.7,0,0,6162,0,211,0,
3.4267,-243.0,-174.6,-233.4,-502.8,-417.0,-586.5,-1122.9,0,0,6168,0,212,0,
3.4300,-242.1,-161.4,-238.8,-508.8,-416.7,-589.5,-1123.5,0,0,6174,0,213,0,
3.4333,-235.5,-156.3,-237.6,-506.7,-416.1,-590.1,-1124.1,0,0,6180,0,214,0,
3.4367,-240.3,-159.6,-234.9,-502.8,-407.4,-571.5,-1122.6,0,0,6186,0,215,0,
3.4400,-234.9,-161.4,-243.6,-504.0,-413.4,-586.8,-1116.9,0,0,6192,0,216,0,
3.4433,-236.1,-165.0,-239.4,-500.7,-410.4,-585.6,-1114.8,0,0,6198,0,217,0,
3.4467,-232.5,-165.0,-234.9,-503.4,-413.4,-588.6,-1118.4,0,0,6204,0,218,0,
3.4500,-231.3,-163.8,-233.4,-496.8,-405.9,-582.3,-1121.4,0,0,6210,0,219,0,
3.4533,-228.3,-163.5,-239.4,-500.1,-405.9,-577.5,-1108.2,0,0,6216,0,220,0,
3.4567,-227.1,-150.9,-230.1,-502.8,-411.0,-578.1,-1103.1,0,0,6222,0,221,0,
3.4600,-222.9,-152.4,-235.8,-499.2,-409.8,-579.6,-1108.2,0,0,6228,0,222,0,
3.4633,-229.8,-153.6,-235.8,-500.7,-412.5,-577.5,-1098.9,0,0,6234,0,223,0,
3.4667,-225.3,-148.8,-231.6,-498.0,-414.6,-579.6,-1106.1,0,0,6240,0,224,0,
3.4700,-231.6,-155.1,-235.5,-501.6,-405.3,-588.0,-1114.2,0,0,6246,0,225,0,
3.4733,-230.7,-166.8,-247.2,-508.5,-402.6,-590.7,-1116.0,0,0,6252,0,226,0,
3.4767,-216.0,-151.8,-227.4,-498.3,-428.7,-567.0,-1100.7,0,0,6258,0,227,0,
3.4800,-224.4,-156.3,-231.3,-501.6,-415.2,-582.9,-1112.1,0,0,6264,0,228,0,
3.4833,-221.1,-156.9,-242.7,-501.6,-416.1,-574.5,-1106.1,0,0,6270,0,229,0,
3.4867,-213.3,-155.1,-231.6,-499.2,-408.0,-574.2,-1104.6,0,0,6276,0,230,0,
3.4900,-226.2,-165.3,-234.0,-502.2,-413.7,-581.7,-1117.2,0,0,6282,0,231,0,
3.4933,-221.7,-153.0,-229.5,-501.9,-413.7,-582.6,-1114.2,0,0,6288,0,232,0,
3.4967,-219.0,-149.7,-231.6,-500.4,-413.1,-588.6,-1113.6,0,0,6294,0,233,0,
3.5000,-227.1,-156.0,-231.0,-501.6,-412.2,-583.2,-1123.2,0,0,6300,0,234,0,
3.5033,-225.9,-155.4,-231.3,-501.6,-410.4,-591.0,-1114.8,0,0,6306,0,235,0,
3.5067,-230.1,-166.2,-233.7,-504.0,-409.8,-588.9,-1122.9,0,0,6312,0,236,0,
3.5100,-221.7,-171.9,-227.7,-500.1,-410.7,-587.7,-1113.3,0,0,6318,0,237,0,
3.5133,-222.6,-154.8,-231.9,-503.7,-412.8,-584.7,-1106.4,0,0,6324,0,238,0,
3.5167,-221.1,-161.7,-235.2,-503.7,-412.8,-582.6,-1104.9,0,0,6330,0,239,0,
3.5200,-223.2,-160.2,-232.5,-505.8,-410.4,-587.1,-1112.4,0,0,6336,0,240,0,
3.5233,-226.8,-149.4,-225.9,-500.4,-411.0,-578.4,-1111.8,0,0,6342,0,241,0,
3.5267,-221.1,-159.9,-239.4,-506.7,-417.3,-597.6,-1116.6,0,0,6348,0,242,0,
3.5300,-228.6,-158.1,-235.2,-501.3,-411.0,-588.0,-1111.5,0,0,6354,0,243,0,
3.5333,-217.5,-152.4,-228.6,-502.5,-415.8,-587.4,-1107.0,0,0,6360,0,244,0,
3.5367,-222.9,-167.7,-228.9,-503.4,-416.4,-585.6,-1110.3,0,0,6366,0,245,0,
3.5400,-229.2,-170.1,-231.6,-502.5,-417.0,-587.4,-1098.6,0,0,6372,0,246,0,
3.5433,-214.5,-163.5,-226.8,-496.8,-411.0,-585.9,-1102.2,0,0,6378,0,247,0,
3.5467,-218.1,-154.8,-227.1,-498.0,-410.4,-586.8,-1097.1,0,0,6384,0,248,0,
3.5500,-216.0,-156.6,-231.6,-499.5,-409.5,-583.5,-1097.7,0,0,6390,0,249,0,
3.5533,-219.3,-165.3,-234.6,-499.8,-399.6,-590.1,-1100.7,0,0,6396,0,250,0,
3.5567,-229.8,-169.2,-236.4,-503.1,-395.1,-599.1,-1100.4,0,0,6402,0,251,0,
3.5600,-215.1,-153.3,-217.5,-492.6,-421.2,-572.1,-1087.5,0,0,6408,0,252,0,
3.5633,-219.9,-163.8,-240.0,-507.0,-410.7,-584.1,-1090.2,0,0,6414,0,253,0,
3.5667,-213.9,-168.3,-235.5,-506.7,-414.0,-586.8,-1089.6,0,0,6420,0,254,0,
3.5700,-221.1,-156.9,-228.3,-501.9,-406.2,-577.8,-1096.8,0,0,6426,0,255,0,
3.5733,-224.1,-154.2,-231.3,-500.4,-407.4,-583.8,-1096.5,0,0,6432,0,0,0,
3.5767,-222.9,-157.2,-229.8,-506.1,-414.9,-592.5,-1096.8,0,0,6438,0,1,0,
3.5800,-219.9,-161.1,-233.7,-504.6,-410.1,-583.8,-1082.4,0,0,6444,0,2,0,
3.5833,-223.5,-166.5,-235.2,-507.0,-411.0,-590.7,-1091.4,0,0,6450,0,3,0,
3.5867,-227.1,-172.2,-240.6,-504.9,-406.8,-590.1,-1095.0,0,0,6456,0,4,0,
3.5900,-219.3,-160.5,-232.5,-501.3,-406.2,-583.2,-1091.1,0,0,6462,0,5,0,
3.5933,-229.2,-162.6,-231.9,-504.3,-410.7,-591.6,-1095.3,0,0,6468,0,6,0,
3.5967,-230.4,-157.5,-236.7,-505.2,-409.5,-588.6,-1090.2,0,0,6474,0,7,0,
3.6000,-220.2,-163.8,-234.0,-500.4,-408.0,-589.8,-1085.4,0,0,6480,0,8,0,
3.6033,-219.9,-168.6,-231.3,-504.0,-413.1,-586.5,-1088.4,0,0,6486,0,9,0,
3.6067,-227.1,-164.4,-235.2,-502.2,-409.5,-580.8,-1087.2,0,0,6492,0,10,0,
3.6100,-223.5,-162.6,-242.4,-506.1,-411.6,-587.4,-1092.3,0,0,6498,0,11,0,
3.6133,-219.3,-168.9,-232.2,-504.6,-415.5,-594.0,-1088.7,0,0,6504,0,12,0,
3.6167,-214.8,-159.9,-229.5,-500.1,-406.8,-582.3,-1081.8,0,0,6510,0,13,0,
3.6200,-215.1,-158.7,-230.4,-503.1,-409.2,-583.5,-1081.5,0,0,6516,0,14,0,
3.6233,-221.4,-160.2,-229.8,-504.9,-411.0,-584.4,-1078.5,0,0,6522,0,15,0,
3.6267,-220.2,-159.6,-229.2,-506.7,-412.5,-585.3,-1070.7,0,0,6528,0,16,0,
3.6300,-212.4,-143.7,-226.5,-501.9,-411.6,-580.5,-1074.6,0,0,6534,0,17,0,
3.6333,-229.5,-160.2,-231.6,-509.7,-394.8,-595.2,-1088.4,0,0,6540,0,18,0,
3.6367,-219.0,-160.8,-229.2,-504.0,-405.6,-588.0,-1084.2,0,0,6546,0,19,0,
3.6400,-216.6,-171.9,-220.8,-497.1,-420.0,-574.8,-1079.4,0,0,6552,0,20,0,
3.6433,-223.2,-164.1,-240.3,-505.5,-409.5,-579.0,-1075.5,0,0,6558,0,21,0,
3.6467,-225.6,-165.0,-240.0,-507.9,-417.3,-593.7,-1080.9,0,0,6564,0,22,0,
3.6500,-226.5,-174.9,-237.6,-507.9,-410.7,-587.7,-1075.2,0,0,6570,0,23,0,
3.6533,-219.0,-161.4,-232.5,-507.0,-407.7,-586.2,-1070.7,0,0,6576,0,24,0,
3.6567,-219.9,-157.5,-225.6,-504.6,-408.3,-589.2,-1070.4,0,0,6582,0,25,0,
3.6600,-218.7,-167.1,-228.6,-502.2,-408.9,-588.3,-1072.8,0,0,6588,0,26,0,
3.6633,-221.7,-171.0,-227.4,-500.1,-409.2,-590.1,-1076.4,0,0,6594,0,27,0,
3.6667,-230.7,-168.6,-231.3,-505.8,-413.4,-595.2,-1077.6,0,0,6600,0,28,0,
3.6700,-232.2,-175.8,-229.8,-505.2,-414.3,-592.8,-1086.0,0,0,6606,0,29,0,
3.6733,-228.6,-170.4,-232.8,-502.8,-412.5,-592.5,-1080.0,0,0,6612,0,30,0,
3.6767,-226.5,-163.5,-225.3,-501.3,-412.5,-585.9,-1069.5,0,0,6618,0,31,0,
3.6800,-227.4,-166.5,-225.3,-506.4,-411.6,-589.5,-1075.8,0,0,6624,0,32,0,
3.6833,-236.7,-170.1,-241.8,-503.4,-415.5,-597.6,-1086.3,0,0,6630,0,33,0,
3.6867,-236.4,-186.9,-253.8,-509.1,-416.4,-597.3,-1088.4,0,0,6636,0,34,0,
3.6900,-233.4,-180.0,-237.9,-505.2,-420.3,-597.9,-1078.5,0,0,6642,0,35,0,
3.6933,-244.8,-178.2,-245.7,-510.9,-419.7,-600.9,-1096.8,0,0,6648,0,36,0,
3.6967,-243.9,-171.0,-244.5,-509.4,-420.9,-604.2,-1089.3,0,0,6654,0,37,0,
3.7000,-255.3,-180.6,-255.6,-517.2,-404.1,-618.3,-1107.6,0,0,6660,0,38,0,
3.7033,-234.9,-159.9,-236.4,-501.3,-427.5,-581.7,-1087.8,0,0,6666,0,39,0,
3.7067,-237.9,-163.8,-234.0,-502.8,-423.0,-593.7,-1087.2,0,0,6672,0,40,0,
3.7100,-240.0,-164.7,-231.6,-503.7,-421.2,-594.9,-1089.9,0,0,6678,0,41,0,
3.7133,-236.4,-171.3,-233.1,-503.7,-420.9,-598.8,-1093.2,0,0,6684,0,42,0,
3.7167,-236.1,-174.6,-230.4,-504.3,-418.2,-590.1,-1078.2,0,0,6690,0,43,0,
3.7200,-233.1,-161.1,-220.5,-498.9,-416.1,-594.9,-1076.4,0,0,6696,0,44,0,
3.7233,-238.5,-162.9,-233.1,-503.4,-417.6,-598.5,-1076.4,0,0,6702,0,45,0,
3.7267,-243.6,-169.5,-234.0,-507.3,-418.2,-600.0,-1081.5,0,0,6708,0,46,0,
3.7300,-234.6,-166.8,-233.1,-506.7,-420.6,-597.6,-1079.1,0,0,6714,0,47,0,
3.7333,-231.3,-167.1,-221.1,-503.4,-420.9,-602.4,-1086.0,0,0,6720,0,48,0,
3.7367,-227.4,-159.6,-225.3,-504.3,-414.0,-583.2,-1082.7,0,0,6726,0,49,0,
3.7400,-228.9,-153.9,-221.1,-501.3,-414.0,-594.9,-1082.4,0,0,6732,0,50,0,
3.7433,-233.4,-159.0,-227.1,-505.2,-415.8,-594.6,-1079.1,0,0,6738,0,51,0,
3.7467,-234.3,-159.0,-225.9,-504.3,-415.8,-591.9,-1081.8,0,0,6744,0,52,0,
3.7500,-231.6,-159.3,-233.7,-505.8,-417.6,-590.7,-1077.6,0,0,6750,0,53,0,
3.7533,-228.6,-147.6,-230.1,-501.0,-409.8,-586.2,-1065.6,0,0,6756,0,54,0,
3.7567,-236.1,-156.6,-222.6,-505.2,-414.6,-589.8,-1074.3,0,0,6762,0,55,0,
3.7600,-231.9,-159.6,-227.7,-501.9,-406.2,-597.9,-1085.1,0,0,6768,0,56,0,
3.7633,-240.0,-171.6,-240.6,-510.6,-401.7,-605.7,-1092.0,0,0,6774,0,57,0,
3.7667,-222.6,-156.9,-226.2,-499.2,-429.0,-575.1,-1071.3,0,0,6780,0,58,0,
3.7700,-228.6,-162.6,-226.8,-505.5,-414.6,-589.5,-1075.8,0,0,6786,0,59,0,
3.7733,-231.3,-162.3,-226.8,-504.3,-416.1,-590.7,-1072.2,0,0,6792,0,60,0,
3.7767,-234.6,-167.7,-230.4,-507.9,-414.9,-595.8,-1072.5,0,0,6798,0,61,0,
3.7800,-238.5,-170.7,-231.9,-506.4,-415.8,-593.7,-1085.4,0,0,6804,0,62,0,
3.7833,-240.9,-171.6,-228.3,-508.8,-413.1,-598.2,-1089.6,0,0,6810,0,63,0,
3.7867,-235.2,-171.3,-230.1,-510.3,-415.8,-597.9,-1076.7,0,0,6816,0,64,0,
3.7900,-238.5,-159.6,-233.4,-513.3,-417.9,-588.6,-1063.2,0,0,6822,0,65,0,
3.7933,-237.3,-178.8,-242.7,-513.9,-419.1,-594.9,-1075.5,0,0,6828,0,66,0,
3.7967,-243.3,-179.4,-232.5,-512.1,-419.7,-602.7,-1092.6,0,0,6834,0,67,0,
3.8000,-240.3,-176.7,-232.8,-507.6,-417.0,-593.7,-1080.0,0,0,6840,0,68,0,
3.8033,-221.7,-169.5,-235.5,-509.1,-417.0,-586.5,-1066.8,0,0,6846,0,69,0,
3.8067,-234.3,-183.0,-236.4,-510.3,-418.8,-591.9,-1077.0,0,0,6852,0,70,0,
3.8100,-231.0,-169.5,-230.7,-508.2,-419.4,-591.0,-1072.2,0,0,6858,0,71,0,
3.8133,-230.7,-157.8,-230.7,-508.2,-420.3,-588.9,-1071.0,0,0,6864,0,72,0,
3.8167,-228.3,-169.2,-234.6,-513.9,-419.7,-587.1,-1071.0,0,0,6870,0,73,0,
3.8200,-232.8,-169.5,-238.8,-513.0,-421.5,-591.6,-1077.3,0,0,6876,0,74,0,
3.8233,-233.7,-172.5,-243.0,-518.7,-420.0,-584.7,-1078.2,0,0,6882,0,75,0,
3.8267,-235.2,-171.3,-242.1,-518.1,-423.9,-592.8,-1068.6,0,0,6888,0,76,0,
3.8300,-230.4,-175.5,-233.1,-516.3,-420.3,-591.0,-1073.1,0,0,6894,0,77,0,
3.8333,-236.4,-167.4,-234.0,-514.8,-422.1,-591.0,-1066.8,0,0,6900,0,78,0,
3.8367,-247.8,-184.5,-249.6,-517.8,-402.9,-597.3,-1076.1,0,0,6906,0,79,0,
3.8400,-232.5,-167.4,-226.5,-501.9,-422.1,-588.6,-1062.9,0,0,6912,0,80,0,
3.8433,-230.4,-153.9,-229.5,-505.5,-426.6,-580.5,-1056.3,0,0,6918,0,81,0,
3.8467,-228.6,-166.5,-246.0,-512.7,-420.0,-588.6,-1064.1,0,0,6924,0,82,0,
3.8500,-228.3,-163.5,-238.8,-504.9,-419.1,-582.3,-1060.8,0,0,6930,0,83,0,
3.8533,-228.3,-164.1,-234.0,-504.0,-417.3,-582.0,-1062.6,0,0,6936,0,84,0,
3.8567,-229.8,-164.7,-235.2,-508.8,-420.6,-588.3,-1068.6,0,0,6942,0,85,0,
3.8600,-230.1,-173.4,-236.1,-507.3,-420.0,-585.6,-1070.7,0,0,6948,0,86,0,
3.8633,-235.5,-174.9,-234.6,-509.4,-421.8,-589.2,-1082.7,0,0,6954,0,87,0,
3.8667,-231.3,-172.8,-237.0,-508.2,-422.1,-591.0,-1071.6,0,0,6960,0,88,0,
3.8700,-223.8,-165.3,-238.8,-506.4,-418.5,-584.1,-1065.6,0,0,6966,0,89,0,
3.8733,-224.1,-172.2,-236.4,-504.9,-417.3,-587.7,-1054.8,0,0,6972,0,90,0,
3.8767,-228.0,-171.3,-241.8,-506.4,-424.8,-591.6,-1059.9,0,0,6978,0,91,0,
3.8800,-226.8,-165.0,-234.9,-506.4,-423.6,-593.1,-1060.5,0,0,6984,0,92,0,
3.8833,-226.2,-163.5,-230.7,-506.4,-425.1,-588.9,-1068.0,0,0,6990,0,93,0,
3.8867,-228.3,-165.9,-244.8,-508.8,-420.0,-590.1,-1068.3,0,0,6996,0,94,0,
3.8900,-223.5,-160.5,-242.4,-510.0,-418.8,-588.9,-1070.1,0,0,7002,0,95,0,
3.8933,-228.9,-168.3,-241.5,-511.8,-422.4,-594.0,-1073.7,0,0,7008,0,96,0,
3.8967,-233.7,-172.8,-242.7,-511.8,-423.6,-590.7,-1068.3,0,0,7014,0,97,0,
3.9000,-224.1,-166.2,-239.4,-504.3,-422.4,-592.2,-1074.6,0,0,7020,0,98,0,
3.9033,-229.2,-162.0,-236.7,-505.2,-417.0,-584.7,-1069.2,0,0,7026,0,99,0,
3.9067,-225.3,-171.9,-237.6,-507.0,-419.4,-590.1,-1070.4,0,0,7032,0,100,0,
3.9100,-231.0,-174.0,-239.4,-506.4,-412.8,-579.3,-1077.0,0,0,7038,0,101,0,
3.9133,-223.8,-163.5,-238.2,-507.3,-415.5,-582.0,-1070.7,0,0,7044,0,102,0,
3.9167,-225.3,-166.2,-242.7,-509.4,-420.3,-594.3,-1068.3,0,0,7050,0,103,0,
3.9200,-218.4,-160.8,-229.8,-505.8,-415.5,-585.3,-1063.5,0,0,7056,0,104,0,
3.9233,-222.3,-164.1,-222.6,-504.3,-416.4,-588.6,-1070.7,0,0,7062,0,105,0,
3.9267,-225.0,-174.9,-235.2,-504.3,-420.9,-592.8,-1069.5,0,0,7068,0,106,0,
3.9300,-217.5,-168.3,-230.7,-498.0,-419.4,-588.6,-1053.3,0,0,7074,0,107,0,
3.9333,-216.9,-156.9,-231.0,-500.4,-417.6,-586.8,-1053.9,0,0,7080,0,108,0,
3.9367,-222.0,-160.5,-225.6,-501.3,-418.2,-588.0,-1062.6,0,0,7086,0,109,0,
3.9400,-221.4,-161.1,-236.7,-504.6,-418.2,-589.8,-1058.4,0,0,7092,0,110,0,
3.9433,-222.9,-162.9,-233.1,-502.2,-419.4,-589.2,-1061.7,0,0,7098,0,111,0,
3.9467,-222.9,-163.8,-239.7,-501.3,-414.6,-585.9,-1060.8,0,0,7104,0,112,0,
3.9500,-219.3,-160.8,-242.4,-510.6,-417.3,-589.2,-1067.1,0,0,7110,0,113,0,
3.9533,-223.2,-160.5,-238.5,-502.8,-414.9,-586.2,-1067.4,0,0,7116,0,114,0,
3.9567,-226.2,-161.7,-235.5,-502.5,-414.3,-587.1,-1064.1,0,0,7122,0,115,0,
3.9600,-222.0,-162.9,-236.1,-502.8,-415.2,-586.2,-1066.8,0,0,7128,0,116,0,
3.9633,-226.2,-159.6,-230.4,-504.9,-415.2,-585.6,-1069.5,0,0,7134,0,117,0,
3.9667,-225.0,-163.8,-243.0,-508.8,-417.9,-592.5,-1064.1,0,0,7140,0,118,0,
3.9700,-234.6,-174.9,-248.7,-511.8,-398.4,-606.3,-1078.8,0,0,7146,0,119,0,
3.9733,-223.2,-150.9,-234.0,-501.3,-426.6,-576.9,-1058.1,0,0,7152,0,120,0,
3.9767,-225.6,-168.0,-240.3,-506.4,-421.2,-582.6,-1073.1,0,0,7158,0,121,0,
3.9800,-231.0,-168.6,-246.9,-510.3,-423.0,-587.7,-1077.3,0,0,7164,0,122,0,
3.9833,-227.7,-178.8,-244.5,-506.1,-416.7,-583.5,-1062.0,0,0,7170,0,123,0,
3.9867,-233.4,-179.1,-247.5,-506.1,-419.1,-581.4,-1064.7,0,0,7176,0,124,0,
3.9900,-235.2,-173.1,-250.5,-510.9,-422.1,-594.6,-1068.0,0,0,7182,0,125,0,
3.9933,-230.1,-173.4,-242.1,-509.4,-417.6,-586.8,-1066.5,0,0,7188,0,126,0,
3.9967,-227.4,-170.1,-244.5,-506.7,-421.2,-596.4,-1067.4,0,0,7194,0,127,0,
4.0000,-233.7,-169.2,-247.5,-507.0,-416.1,-583.5,-1070.7,0,0,7200,0,128,0,
4.0033,-222.6,-165.3,-237.0,-500.7,-414.0,-584.4,-1052.7,0,0,7206,0,129,0,
4.0067,-226.8,-162.0,-243.6,-500.4,-414.6,-588.0,-1069.8,0,0,7212,0,130,0,
4.0100,-232.8,-172.8,-239.7,-502.8,-420.9,-592.8,-1072.5,0,0,7218,0,131,0,
4.0133,-228.6,-174.0,-244.2,-505.2,-412.5,-581.4,-1064.4,0,0,7224,0,132,0,
4.0167,-219.3,-165.3,-240.9,-500.1,-413.1,-583.2,-1055.4,0,0,7230,0,133,0,
4.0200,-231.3,-158.4,-241.5,-500.4,-419.4,-588.3,-1068.6,0,0,7236,0,134,0,
4.0233,-225.9,-156.3,-240.0,-501.3,-413.4,-583.5,-1066.5,0,0,7242,0,135,0,
4.0267,-229.8,-164.1,-243.3,-507.3,-421.5,-585.0,-1070.7,0,0,7248,0,136,0,
4.0300,-232.8,-172.5,-245.7,-506.1,-418.5,-584.7,-1066.8,0,0,7254,0,137,0,
4.0333,-236.4,-170.4,-241.5,-502.8,-413.1,-594.0,-1065.0,0,0,7260,0,138,0,
4.0367,-235.2,-179.1,-242.4,-505.8,-396.6,-597.9,-1077.0,0,0,7266,0,139,0,
4.0400,-216.9,-150.0,-225.0,-494.1,-426.3,-567.3,-1057.2,0,0,7272,0,140,0,
4.0433,-228.6,-163.8,-242.7,-503.1,-420.3,-581.1,-1065.9,0,0,7278,0,141,0,
4.0467,-217.2,-151.8,-228.3,-497.4,-416.4,-570.3,-1052.1,0,0,7284,0,142,0,
4.0500,-224.1,-160.8,-236.7,-499.8,-414.0,-570.6,-1053.3,0,0,7290,0,143,0,
4.0533,-216.3,-157.2,-225.9,-493.8,-410.1,-575.7,-1054.8,0,0,7296,0,144,0,
4.0567,-234.3,-171.0,-228.6,-502.5,-416.7,-582.9,-1069.5,0,0,7302,0,145,0,
4.0600,-233.4,-168.3,-234.9,-503.7,-419.1,-581.7,-1065.0,0,0,7308,0,146,0,
4.0633,-232.8,-169.2,-244.2,-505.8,-416.1,-582.9,-1064.7,0,0,7314,0,147,0,
4.0667,-231.0,-168.9,-242.1,-507.0,-421.2,-585.6,-1068.9,0,0,7320,0,148,0,
4.0700,-227.4,-164.4,-242.1,-505.5,-411.3,-580.2,-1063.5,0,0,7326,0,149,0,
4.0733,-229.2,-171.3,-242.4,-505.5,-414.6,-579.0,-1061.4,0,0,7332,0,150,0,
4.0767,-232.8,-171.0,-233.1,-501.6,-416.1,-583.2,-1070.7,0,0,7338,0,151,0,
4.0800,-228.9,-162.6,-241.8,-500.7,-412.8,-573.9,-1059.0,0,0,7344,0,152,0,
4.0833,-227.7,-169.8,-241.8,-507.0,-416.1,-581.7,-1059.0,0,0,7350,0,153,0,
4.0867,-225.6,-167.4,-235.8,-505.2,-414.9,-582.6,-1051.5,0,0,7356,0,154,0,
4.0900,-230.4,-167.7,-237.6,-504.9,-413.7,-577.8,-1061.7,0,0,7362,0,155,0,
4.0933,-236.1,-173.1,-237.6,-507.3,-410.1,-571.2,-1057.8,0,0,7368,0,156,0,
4.0967,-227.4,-170.7,-234.0,-506.1,-414.6,-589.5,-1068.6,0,0,7374,0,157,0,
4.1000,-246.9,-187.5,-249.3,-514.5,-395.4,-598.8,-1080.6,0,0,7380,0,158,0,
4.1033,-221.7,-159.6,-228.6,-504.0,-419.7,-567.0,-1051.2,0,0,7386,0,159,0,
4.1067,-221.1,-168.6,-237.6,-501.3,-408.6,-571.2,-1058.4,0,0,7392,0,160,0,
4.1100,-222.0,-167.1,-233.1,-500.7,-415.8,-575.1,-1056.0,0,0,7398,0,161,0,
4.1133,-223.5,-161.7,-224.7,-496.5,-408.0,-570.3,-1056.3,0,0,7404,0,162,0,
4.1167,-232.5,-169.8,-237.0,-500.4,-414.3,-576.6,-1065.3,0,0,7410,0,163,0,
4.1200,-226.8,-171.3,-240.0,-502.5,-406.8,-576.3,-1065.0,0,0,7416,0,164,0,
4.1233,-223.5,-167.7,-235.8,-502.2,-411.6,-571.8,-1063.8,0,0,7422,0,165,0,
4.1267,-226.8,-165.9,-233.1,-502.5,-412.8,-578.4,-1075.2,0,0,7428,0,166,0,
4.1300,-229.5,-159.0,-231.3,-498.9,-412.2,-579.6,-1072.8,0,0,7434,0,167,0,
4.1333,-233.7,-168.6,-242.4,-504.9,-413.4,-583.2,-1073.7,0,0,7440,0,168,0,
4.1367,-231.3,-159.3,-230.7,-500.4,-411.9,-580.8,-1067.7,0,0,7446,0,169,0,
4.1400,-237.6,-162.9,-229.2,-501.0,-416.7,-577.2,-1064.7,0,0,7452,0,170,0,
4.1433,-233.7,-169.8,-238.2,-504.9,-417.6,-576.9,-1067.7,0,0,7458,0,171,0,
4.1467,-241.2,-174.9,-240.0,-505.8,-421.5,-582.0,-1070.4,0,0,7464,0,172,0,
4.1500,-239.7,-168.0,-234.9,-500.1,-415.2,-581.1,-1070.7,0,0,7470,0,173,0,
4.1533,-234.0,-153.0,-227.7,-498.0,-414.3,-579.9,-1067.4,0,0,7476,0,174,0,
4.1567,-234.0,-161.4,-234.6,-498.9,-413.7,-582.9,-1064.7,0,0,7482,0,175,0,
4.1600,-242.7,-172.8,-237.0,-504.6,-418.8,-588.9,-1077.3,0,0,7488,0,176,0,
4.1633,-234.3,-159.0,-230.4,-501.3,-413.7,-576.0,-1065.6,0,0,7494,0,177,0,
4.1667,-232.8,-160.2,-229.5,-501.3,-420.6,-591.0,-1079.7,0,0,7500,0,178,0,
4.1700,-237.9,-164.7,-236.4,-500.4,-417.6,-583.8,-1078.8,0,0,7506,0,179,0,
4.1733,-240.9,-161.7,-227.7,-502.2,-420.9,-589.2,-1085.4,0,0,7512,0,180,0,
4.1767,-238.8,-158.4,-223.5,-501.9,-420.0,-585.9,-1078.2,0,0,7518,0,181,0,
4.1800,-240.9,-167.4,-233.1,-499.5,-421.2,-587.4,-1086.6,0,0,7524,0,182,0,
4.1833,-237.0,-161.4,-233.4,-503.1,-418.2,-598.8,-1088.7,0,0,7530,0,183,0,
4.1867,-241.8,-165.0,-233.1,-504.3,-405.9,-599.7,-1091.7,0,0,7536,0,184,0,
4.1900,-230.4,-159.9,-222.6,-496.5,-431.4,-561.9,-1075.5,0,0,7542,0,185,0,
4.1933,-235.2,-157.5,-234.0,-502.8,-419.7,-585.9,-1082.4,0,0,7548,0,186,0,
4.1967,-239.1,-157.5,-237.0,-507.3,-425.7,-583.8,-1075.8,0,0,7554,0,187,0,
4.2000,-239.4,-163.2,-229.2,-503.4,-419.4,-585.3,-1076.1,0,0,7560,0,188,0,
4.2033,-241.2,-164.1,-237.9,-506.7,-422.7,-583.8,-1077.6,0,0,7566,0,189,0,
4.2067,-237.3,-171.9,-237.9,-507.6,-416.7,-582.3,-1077.9,0,0,7572,0,190,0,
4.2100,-236.7,-160.2,-233.7,-503.1,-417.0,-581.4,-1074.3,0,0,7578,0,191,0,
4.2133,-234.9,-164.7,-236.1,-500.4,-414.3,-578.4,-1071.6,0,0,7584,0,192,0,
4.2167,-238.2,-169.2,-234.6,-504.3,-417.0,-582.9,-1082.7,0,0,7590,0,193,0,
4.2200,-228.3,-150.0,-227.1,-499.5,-412.2,-575.1,-1077.3,0,0,7596,0,194,0,
4.2233,-232.5,-153.6,-228.0,-503.1,-414.3,-575.1,-1070.1,0,0,7602,0,195,0,
4.2267,-229.8,-164.4,-226.2,-503.7,-415.2,-575.1,-1071.3,0,0,7608,0,196,0,
4.2300,-231.3,-161.7,-222.6,-499.2,-414.9,-573.3,-1068.3,0,0,7614,0,197,0,
4.2333,-235.2,-158.1,-231.9,-501.9,-417.9,-585.0,-1089.6,0,0,7620,0,198,0,
4.2367,-237.9,-158.1,-228.0,-501.3,-414.6,-578.7,-1088.4,0,0,7626,0,199,0,
4.2400,-240.0,-146.1,-229.2,-500.4,-419.4,-590.1,-1091.7,0,0,7632,0,200,0,
4.2433,-250.2,-155.7,-230.4,-497.4,-414.9,-577.8,-1090.2,0,0,7638,0,201,0,
4.2467,-239.1,-171.0,-229.2,-500.1,-402.3,-599.4,-1091.7,0,0,7644,0,202,0,
4.2500,-222.0,-153.3,-225.6,-490.5,-425.4,-564.9,-1068.0,0,0,7650,0,203,0,
4.2533,-225.0,-158.7,-228.0,-495.6,-423.9,-574.5,-1072.8,0,0,7656,0,204,0,
4.2567,-225.6,-164.1,-228.0,-495.9,-417.0,-576.3,-1077.3,0,0,7662,0,205,0,
4.2600,-226.8,-161.7,-232.8,-495.3,-417.0,-583.8,-1075.8,0,0,7668,0,206,0,
4.2633,-227.7,-153.6,-228.0,-495.3,-414.6,-576.3,-1077.3,0,0,7674,0,207,0,
4.2667,-230.1,-158.1,-230.1,-500.4,-417.0,-579.0,-1080.6,0,0,7680,0,208,0,
4.2700,-228.0,-154.8,-224.4,-495.9,-418.5,-578.1,-1077.3,0,0,7686,0,209,0,
4.2733,-225.0,-164.4,-235.2,-501.3,-415.5,-576.0,-1074.3,0,0,7692,0,210,0,
4.2767,-228.3,-162.0,-233.1,-500.4,-411.0,-573.3,-1074.0,0,0,7698,0,211,0,
4.2800,-223.2,-156.6,-228.0,-501.0,-413.4,-575.7,-1073.4,0,0,7704,0,212,0,
4.2833,-221.7,-156.6,-227.1,-498.0,-405.6,-572.7,-1073.7,0,0,7710,0,213,0,
4.2867,-225.3,-159.6,-234.6,-498.9,-408.9,-565.2,-1070.7,0,0,7716,0,214,0,
4.2900,-221.1,-158.7,-232.5,-499.5,-411.3,-573.0,-1077.9,0,0,7722,0,215,0,
4.2933,-228.0,-166.5,-231.6,-498.9,-413.1,-579.6,-1077.3,0,0,7728,0,216,0,
4.2967,-235.5,-168.0,-239.1,-506.4,-416.4,-575.7,-1086.0,0,0,7734,0,217,0,
4.3000,-233.1,-161.4,-237.6,-503.1,-406.2,-585.9,-1089.9,0,0,7740,0,218,0,
4.3033,-241.5,-164.7,-245.1,-504.6,-401.4,-591.9,-1093.8,0,0,7746,0,219,0,
4.3067,-216.9,-142.5,-225.6,-491.4,-426.3,-557.4,-1060.5,0,0,7752,0,220,0,
4.3100,-219.9,-157.2,-229.8,-496.2,-411.3,-566.7,-1072.8,0,0,7758,0,221,0,
4.3133,-220.5,-161.7,-228.3,-494.1,-413.4,-570.6,-1077.6,0,0,7764,0,222,0,
4.3167,-231.3,-163.8,-236.4,-495.3,-414.3,-573.3,-1080.0,0,0,7770,0,223,0,
4.3200,-227.7,-168.9,-236.4,-495.0,-415.5,-579.6,-1074.9,0,0,7776,0,224,0,
4.3233,-228.9,-169.2,-223.8,-495.9,-414.0,-577.2,-1070.1,0,0,7782,0,225,0,
4.3267,-232.8,-181.5,-234.0,-501.0,-417.6,-579.0,-1073.4,0,0,7788,0,226,0,
4.3300,-233.1,-171.6,-229.5,-500.1,-418.8,-588.6,-1088.4,0,0,7794,0,227,0,
4.3333,-235.2,-171.0,-235.8,-500.4,-415.2,-579.6,-1080.0,0,0,7800,0,228,0,
4.3367,-231.6,-180.3,-237.0,-504.3,-417.6,-589.2,-1083.9,0,0,7806,0,229,0,
4.3400,-239.7,-179.4,-242.4,-507.6,-418.5,-588.6,-1086.0,0,0,7812,0,230,0,
4.3433,-232.2,-170.7,-239.4,-503.1,-418.2,-596.1,-1079.4,0,0,7818,0,231,0,
4.3467,-231.6,-174.3,-239.7,-503.7,-412.2,-578.7,-1080.9,0,0,7824,0,232,0,
4.3500,-222.0,-170.1,-232.5,-496.5,-417.6,-579.0,-1068.0,0,0,7830,0,233,0,
4.3533,-237.3,-181.8,-237.9,-506.7,-398.4,-598.2,-1077.9,0,0,7836,0,234,0,
4.3567,-222.9,-169.2,-224.4,-496.5,-420.0,-567.3,-1061.1,0,0,7842,0,235,0,
4.3600,-228.9,-176.1,-232.8,-500.7,-420.9,-580.2,-1073.4,0,0,7848,0,236,0,
4.3633,-225.9,-183.6,-230.1,-497.1,-414.3,-579.0,-1064.1,0,0,7854,0,237,0,
4.3667,-225.6,-186.0,-240.0,-498.3,-412.5,-579.3,-1067.1,0,0,7860,0,238,0,
4.3700,-225.3,-186.0,-236.4,-498.3,-415.5,-581.7,-1070.4,0,0,7866,0,239,0,
4.3733,-222.9,-176.7,-234.0,-500.7,-413.7,-581.1,-1065.6,0,0,7872,0,240,0,
4.3767,-222.6,-176.7,-232.8,-500.7,-415.2,-583.8,-1070.1,0,0,7878,0,241,0,
4.3800,-222.0,-171.6,-226.2,-497.7,-413.1,-581.1,-1057.5,0,0,7884,0,242,0,
4.3833,-222.0,-176.4,-231.3,-497.7,-414.9,-579.3,-1059.6,0,0,7890,0,243,0,
4.3867,-231.3,-180.3,-229.8,-499.2,-412.5,-580.2,-1056.6,0,0,7896,0,244,0,
4.3900,-229.2,-180.9,-230.7,-498.9,-417.6,-588.9,-1057.8,0,0,7902,0,245,0,
4.3933,-220.8,-183.3,-236.7,-501.0,-413.7,-587.1,-1056.0,0,0,7908,0,246,0,
4.3967,-222.6,-178.8,-231.9,-500.7,-418.2,-584.4,-1050.0,0,0,7914,0,247,0,
4.4000,-229.8,-189.0,-241.5,-508.2,-399.6,-603.9,-1057.5,0,0,7920,0,248,0,
4.4033,-212.1,-167.7,-228.9,-491.7,-422.4,-568.2,-1036.8,0,0,7926,0,249,0,
4.4067,-215.7,-170.1,-224.4,-495.6,-417.6,-572.1,-1047.9,0,0,7932,0,250,0,
4.4100,-213.9,-162.3,-221.1,-491.4,-413.7,-572.7,-1042.2,0,0,7938,0,251,0,
4.4133,-222.3,-178.2,-230.1,-496.5,-415.8,-578.4,-1043.1,0,0,7944,0,252,0,
4.4167,-220.8,-179.1,-226.5,-498.6,-418.8,-583.2,-1054.2,0,0,7950,0,253,0,
4.4200,-214.8,-182.4,-224.4,-498.6,-414.0,-582.3,-1048.5,0,0,7956,0,254,0,
4.4233,-222.3,-181.2,-234.3,-500.7,-418.5,-583.8,-1052.1,0,0,7962,0,255,0,
4.4267,-223.5,-182.1,-232.5,-500.4,-417.9,-589.2,-1057.8,0,0,7968,0,0,0,
4.4300,-220.2,-174.3,-220.2,-496.5,-415.8,-582.6,-1047.6,0,0,7974,0,1,0,
4.4333,-218.1,-183.0,-216.0,-497.1,-411.0,-577.2,-1050.6,0,0,7980,0,2,0,
4.4367,-219.6,-185.1,-226.2,-500.7,-411.0,-568.8,-1048.8,0,0,7986,0,3,0,
4.4400,-216.3,-196.8,-227.1,-500.4,-416.1,-584.7,-1048.5,0,0,7992,0,4,0,
4.4433,-220.8,-183.9,-233.1,-499.8,-412.2,-578.4,-1041.9,0,0,7998,0,5,0,
4.4467,-218.4,-187.2,-229.2,-504.0,-419.1,-584.1,-1047.0,0,0,8004,0,6,0,
4.4500,-228.3,-187.5,-239.4,-506.4,-417.9,-585.0,-1059.3,0,0,8010,0,7,0,
4.4533,-220.8,-183.0,-234.3,-500.4,-414.6,-584.7,-1053.3,0,0,8016,0,8,0,
4.4567,-222.0,-171.0,-233.4,-499.2,-414.6,-579.3,-1050.9,0,0,8022,0,9,0,
4.4600,-221.7,-178.5,-234.6,-501.0,-404.4,-586.2,-1051.5,0,0,8028,0,10,0,
4.4633,-224.1,-179.7,-237.3,-504.3,-403.8,-588.9,-1050.6,0,0,8034,0,11,0,
4.4667,-210.3,-167.4,-222.6,-495.3,-426.9,-561.6,-1032.6,0,0,8040,0,12,0,
4.4700,-213.3,-175.8,-236.4,-501.9,-412.5,-572.4,-1034.1,0,0,8046,0,13,0,
4.4733,-210.6,-171.0,-227.1,-499.2,-413.4,-573.3,-1041.0,0,0,8052,0,14,0,
4.4767,-217.5,-171.0,-227.1,-501.6,-409.2,-575.1,-1036.2,0,0,8058,0,15,0,
4.4800,-219.9,-174.6,-227.4,-500.7,-414.0,-577.8,-1044.9,0,0,8064,0,16,0,
4.4833,-221.1,-180.0,-223.5,-504.6,-414.0,-573.3,-1039.5,0,0,8070,0,17,0,
4.4867,-216.9,-176.1,-234.9,-498.9,-411.0,-576.6,-1046.7,0,0,8076,0,18,0,
4.4900,-220.8,-181.8,-234.3,-503.7,-416.4,-576.9,-1056.3,0,0,8082,0,19,0,
4.4933,-231.0,-190.5,-221.7,-501.3,-418.2,-583.5,-1055.7,0,0,8088,0,20,0,
4.4967,-226.5,-195.0,-219.0,-499.5,-417.0,-582.3,-1056.6,0,0,8094,0,21,0,
4.5000,-221.7,-174.0,-221.7,-502.5,-414.0,-575.4,-1047.3,0,0,8100,0,22,0,
4.5033,-215.1,-166.5,-221.7,-503.7,-414.6,-573.6,-1038.9,0,0,8106,0,23,0,
4.5067,-232.2,-174.9,-223.8,-506.4,-415.5,-577.5,-1055.1,0,0,8112,0,24,0,
4.5100,-218.1,-171.9,-222.9,-503.7,-413.4,-579.9,-1047.6,0,0,8118,0,25,0,
4.5133,-221.7,-170.4,-218.7,-504.3,-412.8,-565.5,-1045.2,0,0,8124,0,26,0,
4.5167,-219.9,-183.0,-220.8,-501.6,-410.4,-575.1,-1042.2,0,0,8130,0,27,0,
4.5200,-225.6,-174.9,-231.9,-504.0,-404.7,-568.5,-1056.6,0,0,8136,0,28,0,
4.5233,-232.5,-170.4,-233.7,-508.5,-398.7,-597.6,-1057.5,0,0,8142,0,29,0,
4.5267,-213.9,-164.7,-216.3,-498.0,-421.8,-559.2,-1038.3,0,0,8148,0,30,0,
4.5300,-219.0,-169.2,-220.8,-496.5,-410.7,-574.2,-1042.8,0,0,8154,0,31,0,
4.5333,-216.0,-168.0,-222.3,-498.3,-411.0,-571.8,-1039.8,0,0,8160,0,32,0,
4.5367,-224.1,-188.7,-229.5,-501.0,-414.9,-580.8,-1043.4,0,0,8166,0,33,0,
4.5400,-215.1,-171.6,-225.6,-498.3,-410.7,-573.6,-1037.1,0,0,8172,0,34,0,
4.5433,-218.7,-166.5,-222.3,-497.4,-408.9,-571.2,-1025.4,0,0,8178,0,35,0,
4.5467,-211.8,-163.2,-220.2,-497.1,-411.6,-573.9,-1048.2,0,0,8184,0,36,0,
4.5500,-210.0,-174.9,-226.8,-499.8,-412.2,-570.6,-1047.9,0,0,8190,0,37,0,
4.5533,-208.8,-169.5,-218.4,-500.4,-412.8,-571.5,-1040.7,0,0,8196,0,38,0,
4.5567,-222.6,-173.4,-219.6,-505.5,-419.4,-581.7,-1045.5,0,0,8202,0,39,0,
4.5600,-214.5,-165.6,-214.5,-497.7,-417.0,-576.3,-1041.3,0,0,8208,0,40,0,
4.5633,-216.9,-161.7,-230.4,-499.5,-416.7,-576.3,-1042.2,0,0,8214,0,41,0,
4.5667,-222.3,-170.7,-221.7,-501.3,-418.2,-579.0,-1042.5,0,0,8220,0,42,0,
4.5700,-222.6,-169.5,-217.2,-498.6,-411.3,-573.9,-1044.9,0,0,8226,0,43,0,
4.5733,-219.3,-177.3,-222.9,-507.0,-413.4,-577.2,-1051.2,0,0,8232,0,44,0,
4.5767,-214.2,-170.1,-223.2,-501.3,-410.4,-566.4,-1045.5,0,0,8238,0,45,0,
4.5800,-214.8,-173.7,-225.0,-505.2,-413.4,-577.2,-1040.1,0,0,8244,0,46,0,
4.5833,-218.4,-170.4,-223.5,-501.0,-414.6,-572.4,-1038.0,0,0,8250,0,47,0,
4.5867,-214.5,-178.8,-228.3,-499.2,-411.6,-575.1,-1035.3,0,0,8256,0,48,0,
4.5900,-206.4,-168.3,-221.4,-497.4,-409.5,-569.1,-1024.8,0,0,8262,0,49,0,
4.5933,-234.6,-196.5,-238.8,-509.4,-395.4,-591.9,-1055.1,0,0,8268,0,50,0,
4.5967,-220.8,-174.3,-226.2,-504.9,-421.8,-567.6,-1040.7,0,0,8274,0,51,0,
4.6000,-218.1,-171.9,-218.1,-498.0,-417.9,-567.6,-1037.7,0,0,8280,0,52,0,
4.6033,-218.1,-165.6,-217.8,-499.2,-409.8,-568.5,-1041.6,0,0,8286,0,53,0,
4.6067,-219.6,-179.7,-224.1,-504.0,-410.7,-571.5,-1039.2,0,0,8292,0,54,0,
4.6100,-222.6,-172.8,-221.1,-500.1,-411.0,-575.4,-1038.9,0,0,8298,0,55,0,
4.6133,-231.9,-179.4,-235.8,-505.2,-408.9,-571.8,-1050.6,0,0,8304,0,56,0,
4.6167,-222.9,-180.0,-225.9,-504.3,-417.9,-582.0,-1044.9,0,0,8310,0,57,0,
4.6200,-225.0,-172.5,-225.0,-501.0,-412.8,-576.0,-1038.9,0,0,8316,0,58,0,
4.6233,-230.4,-183.0,-226.2,-503.7,-416.4,-576.6,-1038.3,0,0,8322,0,59,0,
4.6267,-230.1,-192.3,-221.4,-505.5,-414.0,-585.6,-1052.1,0,0,8328,0,60,0,
4.6300,-235.8,-195.9,-225.0,-503.7,-414.3,-583.5,-1048.2,0,0,8334,0,61,0,
4.6333,-229.5,-188.1,-228.3,-504.9,-410.7,-586.5,-1053.0,0,0,8340,0,62,0,
4.6367,-229.8,-180.6,-228.0,-505.5,-412.2,-578.1,-1051.8,0,0,8346,0,63,0,
4.6400,-231.6,-180.3,-222.6,-504.0,-408.9,-573.3,-1041.6,0,0,8352,0,64,0,
4.6433,-226.8,-182.1,-237.3,-501.9,-409.5,-582.0,-1048.2,0,0,8358,0,65,0,
4.6467,-231.9,-182.7,-226.2,-502.5,-408.6,-581.7,-1046.1,0,0,8364,0,66,0,
4.6500,-231.0,-183.9,-233.1,-502.2,-412.5,-581.1,-1052.7,0,0,8370,0,67,0,
4.6533,-229.2,-177.6,-228.3,-502.8,-408.0,-579.0,-1049.4,0,0,8376,0,68,0,
4.6567,-240.3,-188.1,-228.0,-505.8,-411.0,-592.8,-1054.5,0,0,8382,0,69,0,
4.6600,-247.5,-193.2,-236.4,-511.5,-401.1,-592.2,-1061.1,0,0,8388,0,70,0,
4.6633,-229.5,-177.0,-227.7,-501.9,-430.8,-573.0,-1043.7,0,0,8394,0,71,0,
4.6667,-233.7,-176.7,-222.9,-500.7,-416.7,-583.8,-1055.1,0,0,8400,0,72,0,
4.6700,-228.3,-178.5,-232.8,-498.9,-418.2,-579.3,-1047.6,0,0,8406,0,73,0,
4.6733,-234.3,-182.4,-239.7,-503.4,-417.6,-583.8,-1059.3,0,0,8412,0,74,0,
4.6767,-238.5,-179.7,-229.5,-498.6,-420.9,-588.3,-1057.8,0,0,8418,0,75,0,
4.6800,-235.2,-182.4,-230.4,-500.1,-419.7,-585.6,-1057.8,0,0,8424,0,76,0,
4.6833,-230.7,-174.0,-234.9,-499.2,-415.5,-582.6,-1056.9,0,0,8430,0,77,0,
4.6867,-233.1,-179.7,-231.3,-499.2,-411.6,-581.7,-1060.2,0,0,8436,0,78,0,
4.6900,-225.0,-180.3,-219.3,-495.3,-410.4,-584.4,-1057.2,0,0,8442,0,79,0,
4.6933,-243.3,-183.6,-231.6,-506.7,-412.8,-575.1,-1067.4,0,0,8448,0,80,0,
4.6967,-243.3,-178.5,-224.4,-505.5,-419.7,-592.2,-1061.1,0,0,8454,0,81,0,
4.7000,-231.9,-180.6,-218.1,-498.6,-415.5,-586.5,-1060.2,0,0,8460,0,82,0,
4.7033,-236.1,-180.9,-227.4,-504.0,-418.8,-588.0,-1062.3,0,0,8466,0,83,0,
4.7067,-238.5,-182.4,-229.8,-504.0,-420.0,-588.9,-1060.8,0,0,8472,0,84,0,
4.7100,-227.1,-169.2,-227.1,-497.7,-418.8,-580.8,-1050.9,0,0,8478,0,85,0,
4.7133,-243.6,-180.6,-226.8,-503.4,-420.6,-580.2,-1058.7,0,0,8484,0,86,0,
4.7167,-225.0,-180.9,-221.1,-498.6,-419.1,-590.7,-1057.8,0,0,8490,0,87,0,
4.7200,-232.5,-176.7,-232.2,-501.9,-414.3,-583.5,-1058.4,0,0,8496,0,88,0,
4.7233,-232.2,-178.5,-228.0,-501.9,-413.4,-593.7,-1065.9,0,0,8502,0,89,0,
4.7267,-249.6,-200.1,-245.7,-514.5,-401.7,-610.8,-1086.0,0,0,8508,0,90,0,
4.7300,-226.8,-180.3,-225.6,-502.5,-429.0,-577.5,-1060.2,0,0,8514,0,91,0,
4.7333,-232.5,-183.9,-229.2,-504.6,-420.0,-589.8,-1065.9,0,0,8520,0,92,0,
4.7367,-221.4,-168.0,-219.6,-497.1,-415.5,-578.7,-1060.2,0,0,8526,0,93,0,
4.7400,-225.6,-170.4,-223.5,-499.2,-413.7,-584.4,-1063.8,0,0,8532,0,94,0,
4.7433,-236.1,-184.8,-230.1,-500.7,-416.1,-591.0,-1082.1,0,0,8538,0,95,0,
4.7467,-244.5,-201.3,-230.4,-502.8,-415.5,-593.7,-1083.6,0,0,8544,0,96,0,
4.7500,-231.6,-186.9,-231.9,-505.2,-414.9,-589.2,-1068.0,0,0,8550,0,97,0,
4.7533,-223.5,-175.2,-233.7,-506.7,-411.0,-581.1,-1059.3,0,0,8556,0,98,0,
4.7567,-226.5,-181.2,-225.9,-504.0,-413.1,-586.5,-1056.9,0,0,8562,0,99,0,
4.7600,-228.9,-192.9,-228.9,-504.9,-413.4,-586.2,-1061.1,0,0,8568,0,100,0,
4.7633,-231.6,-193.8,-237.6,-507.9,-412.2,-588.0,-1047.3,0,0,8574,0,101,0,
4.7667,-227.4,-192.9,-241.8,-510.3,-409.5,-564.3,-1056.3,0,0,8580,0,102,0,
4.7700,-219.0,-191.7,-241.8,-504.3,-414.0,-591.0,-1061.4,0,0,8586,0,103,0,
4.7733,-219.3,-188.1,-237.0,-504.6,-412.5,-581.7,-1050.3,0,0,8592,0,104,0,
4.7767,-221.7,-191.4,-234.9,-512.1,-415.8,-590.4,-1065.0,0,0,8598,0,105,0,
4.7800,-223.2,-185.1,-232.5,-510.3,-416.7,-586.8,-1062.0,0,0,8604,0,106,0,
4.7833,-216.6,-187.8,-229.5,-505.5,-414.3,-585.0,-1062.9,0,0,8610,0,107,0,
4.7867,-216.9,-189.3,-231.9,-502.8,-409.2,-577.5,-1055.7,0,0,8616,0,108,0,
4.7900,-224.1,-185.4,-227.7,-505.8,-413.7,-582.3,-1059.0,0,0,8622,0,109,0,
4.7933,-227.7,-207.0,-243.6,-519.0,-403.2,-600.6,-1066.5,0,0,8628,0,110,0,
4.7967,-220.2,-192.6,-235.2,-507.9,-410.7,-581.7,-1054.8,0,0,8634,0,111,0,
4.8000,-207.3,-176.1,-234.6,-501.9,-425.1,-567.6,-1044.9,0,0,8640,0,112,0,
4.8033,-214.2,-183.3,-235.2,-503.1,-409.2,-577.8,-1052.1,0,0,8646,0,113,0,
4.8067,-212.4,-183.0,-230.7,-503.4,-413.4,-580.8,-1051.8,0,0,8652,0,114,0,
4.8100,-217.5,-190.8,-228.6,-503.7,-411.6,-579.0,-1049.1,0,0,8658,0,115,0,
4.8133,-218.4,-189.6,-240.3,-506.4,-414.6,-582.0,-1058.1,0,0,8664,0,116,0,
4.8167,-228.0,-210.6,-248.7,-511.5,-416.7,-585.6,-1065.0,0,0,8670,0,117,0,
4.8200,-221.7,-200.4,-247.5,-510.0,-410.4,-584.1,-1062.6,0,0,8676,0,118,0,
4.8233,-220.5,-192.3,-243.9,-507.6,-409.5,-584.4,-1052.4,0,0,8682,0,119,0,
4.8267,-219.6,-197.7,-243.6,-510.0,-410.7,-583.5,-1058.1,0,0,8688,0,120,0,
4.8300,-224.7,-202.2,-248.7,-511.5,-414.3,-583.5,-1056.9,0,0,8694,0,121,0,
4.8333,-225.0,-198.0,-232.8,-507.0,-412.2,-576.3,-1060.5,0,0,8700,0,122,0,
4.8367,-221.4,-198.3,-237.6,-504.6,-411.6,-586.5,-1060.8,0,0,8706,0,123,0,
4.8400,-224.7,-198.9,-245.1,-505.8,-411.3,-583.5,-1065.3,0,0,8712,0,124,0,
4.8433,-224.1,-194.4,-237.0,-504.6,-407.7,-582.6,-1059.0,0,0,8718,0,125,0,
4.8467,-222.6,-198.0,-243.3,-507.6,-409.5,-584.1,-1063.5,0,0,8724,0,126,0,
4.8500,-222.0,-199.2,-240.3,-508.8,-410.7,-583.8,-1057.2,0,0,8730,0,127,0,
4.8533,-218.4,-191.7,-233.7,-504.0,-405.9,-577.8,-1062.0,0,0,8736,0,128,0,
4.8567,-228.6,-202.2,-243.6,-507.6,-410.1,-578.7,-1066.8,0,0,8742,0,129,0,
4.8600,-215.4,-188.1,-245.7,-507.9,-414.6,-587.7,-1059.9,0,0,8748,0,130,0,
4.8633,-215.1,-192.3,-239.1,-504.0,-408.6,-576.9,-1054.2,0,0,8754,0,131,0,
4.8667,-223.8,-195.0,-246.3,-507.9,-399.0,-600.6,-1062.0,0,0,8760,0,132,0,
4.8700,-221.4,-195.0,-246.6,-505.8,-398.7,-589.2,-1062.0,0,0,8766,0,133,0,
4.8733,-212.1,-186.9,-236.7,-498.9,-419.1,-568.8,-1055.1,0,0,8772,0,134,0,
4.8767,-217.8,-194.4,-245.7,-509.7,-409.8,-582.6,-1075.2,0,0,8778,0,135,0,
4.8800,-218.1,-193.8,-248.7,-508.5,-409.5,-582.3,-1070.7,0,0,8784,0,136,0,
4.8833,-227.4,-196.2,-247.2,-513.6,-409.2,-583.8,-1078.5,0,0,8790,0,137,0,
4.8867,-221.1,-189.0,-245.7,-510.0,-408.3,-574.5,-1054.2,0,0,8796,0,138,0,
4.8900,-213.9,-186.6,-241.5,-506.7,-408.9,-578.7,-1055.7,0,0,8802,0,139,0,
4.8933,-213.6,-185.7,-238.8,-510.6,-411.0,-578.4,-1063.8,0,0,8808,0,140,0,
4.8967,-226.5,-193.5,-240.6,-510.3,-413.1,-580.2,-1071.3,0,0,8814,0,141,0,
4.9000,-224.4,-205.5,-234.6,-507.3,-413.1,-582.0,-1065.3,0,0,8820,0,142,0,
4.9033,-224.7,-198.6,-242.7,-507.9,-411.0,-582.6,-1070.1,0,0,8826,0,143,0,
4.9067,-228.0,-206.1,-249.6,-510.9,-412.8,-584.4,-1066.8,0,0,8832,0,144,0,
4.9100,-232.2,-203.4,-246.0,-506.1,-410.1,-583.2,-1063.8,0,0,8838,0,145,0,
4.9133,-230.7,-200.4,-240.9,-505.8,-411.6,-586.2,-1062.6,0,0,8844,0,146,0,
4.9167,-226.2,-200.1,-243.9,-505.2,-414.6,-580.5,-1070.7,0,0,8850,0,147,0,
4.9200,-224.1,-197.1,-252.3,-505.8,-412.5,-579.6,-1063.8,0,0,8856,0,148,0,
4.9233,-226.8,-196.2,-246.0,-504.3,-412.2,-579.0,-1070.1,0,0,8862,0,149,0,
4.9267,-232.8,-189.3,-251.7,-508.8,-413.4,-580.8,-1074.9,0,0,8868,0,150,0,
4.9300,-226.8,-191.1,-240.0,-506.1,-411.6,-578.1,-1067.1,0,0,8874,0,151,0,
4.9333,-233.7,-208.5,-251.4,-505.8,-411.3,-581.4,-1067.4,0,0,8880,0,152,0,
4.9367,-226.2,-207.0,-250.8,-503.1,-408.9,-577.2,-1068.3,0,0,8886,0,153,0,
4.9400,-220.2,-205.5,-243.0,-500.1,-405.0,-570.3,-1056.6,0,0,8892,0,154,0,
4.9433,-223.8,-201.9,-245.7,-502.2,-407.1,-570.6,-1058.1,0,0,8898,0,155,0,
4.9467,-231.9,-201.3,-252.9,-507.0,-412.8,-573.3,-1078.5,0,0,8904,0,156,0,
4.9500,-236.1,-213.0,-257.4,-508.8,-396.0,-596.1,-1080.0,0,0,8910,0,157,0,
4.9533,-228.9,-197.4,-238.2,-498.0,-408.0,-570.6,-1085.7,0,0,8916,0,158,0,
4.9567,-226.8,-198.6,-246.0,-504.6,-419.4,-569.7,-1075.2,0,0,8922,0,159,0,
4.9600,-222.3,-193.5,-246.3,-507.0,-406.5,-565.2,-1062.0,0,0,8928,0,160,0,
4.9633,-216.9,-200.4,-251.7,-505.8,-407.1,-573.0,-1062.9,0,0,8934,0,161,0,
4.9667,-228.6,-205.2,-254.4,-501.3,-402.6,-562.2,-1056.9,0,0,8940,0,162,0,
4.9700,-222.9,-202.8,-250.2,-500.4,-401.1,-564.9,-1059.3,0,0,8946,0,163,0,
4.9733,-215.4,-198.0,-253.8,-504.0,-404.7,-567.9,-1058.4,0,0,8952,0,164,0,
4.9767,-213.3,-202.2,-252.0,-504.0,-405.6,-566.1,-1054.5,0,0,8958,0,165,0,
4.9800,-219.6,-197.1,-251.4,-500.4,-400.8,-563.1,-1055.1,0,0,8964,0,166,0,
4.9833,-221.7,-208.5,-253.8,-501.9,-403.2,-568.2,-1061.7,0,0,8970,0,167,0,
4.9867,-222.9,-207.9,-252.3,-502.2,-402.6,-571.2,-1065.0,0,0,8976,0,168,0,
4.9900,-226.2,-204.9,-245.7,-503.7,-404.7,-572.7,-1067.7,0,0,8982,0,169,0,
4.9933,-221.1,-202.2,-248.1,-506.4,-403.2,-565.2,-1062.3,0,0,8988,0,170,0,
4.9967,-217.8,-204.9,-252.6,-503.1,-401.7,-568.2,-1065.9,0,0,8994,0,171,0,
5.0000,-220.5,-209.4,-248.7,-507.0,-403.5,-570.6,-1063.5,0,0,9000,0,172,0,
5.0033,-222.3,-203.4,-246.3,-504.9,-403.5,-571.8,-1071.3,0,0,9006,0,173,0,
5.0067,-226.2,-213.3,-246.0,-508.5,-405.9,-573.6,-1068.9,0,0,9012,0,174,0,
5.0100,-226.2,-205.8,-246.0,-503.7,-405.9,-567.0,-1063.8,0,0,9018,0,175,0,
5.0133,-232.8,-213.6,-250.2,-507.6,-407.4,-574.8,-1076.7,0,0,9024,0,176,0,
5.0167,-217.5,-202.8,-243.9,-503.7,-401.1,-567.3,-1071.0,0,0,9030,0,177,0,
5.0200,-219.6,-209.4,-242.4,-506.1,-402.6,-565.2,-1074.6,0,0,9036,0,178,0,
5.0233,-210.0,-208.2,-242.4,-504.3,-399.3,-576.6,-1075.5,0,0,9042,0,179,0,
5.0267,-236.7,-217.8,-257.7,-514.2,-384.9,-565.2,-1077.0,0,0,9048,0,180,0,
5.0300,-208.8,-199.2,-230.4,-498.6,-418.2,-550.2,-1064.7,0,0,9054,0,181,0,
5.0333,-212.7,-220.2,-249.9,-507.0,-406.5,-570.3,-1068.9,0,0,9060,0,182,0,
5.0367,-209.4,-202.2,-249.6,-503.1,-405.0,-558.9,-1066.5,0,0,9066,0,183,0,
5.0400,-217.8,-203.1,-244.5,-500.7,-401.4,-565.5,-1067.4,0,0,9072,0,184,0,
5.0433,-218.4,-208.5,-254.7,-504.0,-402.0,-563.1,-1069.8,0,0,9078,0,185,0,
5.0467,-219.3,-196.5,-253.5,-507.0,-404.1,-567.6,-1070.7,0,0,9084,0,186,0,
5.0500,-219.9,-199.5,-249.3,-501.0,-406.5,-569.4,-1075.2,0,0,9090,0,187,0,
5.0533,-219.9,-207.6,-249.3,-499.5,-407.4,-569.1,-1077.0,0,0,9096,0,188,0,
5.0567,-227.4,-214.5,-248.7,-502.8,-408.3,-575.1,-1076.1,0,0,9102,0,189,0,
5.0600,-227.1,-201.9,-242.1,-499.2,-407.4,-573.3,-1075.2,0,0,9108,0,190,0,
5.0633,-229.5,-214.5,-252.3,-501.6,-409.8,-572.4,-1073.4,0,0,9114,0,191,0,
5.0667,-221.4,-207.9,-245.1,-496.8,-406.5,-570.0,-1075.5,0,0,9120,0,192,0,
5.0700,-217.5,-201.3,-238.5,-495.0,-403.2,-561.6,-1076.1,0,0,9126,0,193,0,
5.0733,-219.9,-201.0,-244.8,-493.8,-404.1,-561.9,-1071.6,0,0,9132,0,194,0,
5.0767,-227.7,-208.5,-250.5,-506.1,-413.1,-567.6,-1073.4,0,0,9138,0,195,0,
5.0800,-226.8,-210.6,-250.5,-504.6,-407.4,-570.0,-1077.3,0,0,9144,0,196,0,
5.0833,-226.8,-210.6,-247.5,-503.7,-407.1,-569.4,-1081.2,0,0,9150,0,197,0,
5.0867,-226.2,-205.2,-244.5,-500.1,-399.0,-565.2,-1073.1,0,0,9156,0,198,0,
5.0900,-221.4,-201.0,-240.3,-500.4,-399.0,-567.9,-1074.9,0,0,9162,0,199,0,
5.0933,-231.3,-216.6,-247.5,-508.2,-381.6,-577.2,-1080.9,0,0,9168,0,200,0,
5.0967,-214.5,-192.9,-234.0,-498.9,-409.8,-541.2,-1056.6,0,0,9174,0,201,0,
5.1000,-214.2,-190.2,-237.6,-498.0,-407.4,-560.4,-1075.8,0,0,9180,0,202,0,
5.1033,-216.0,-194.7,-225.0,-493.2,-403.8,-555.0,-1068.6,0,0,9186,0,203,0,
5.1067,-222.9,-197.7,-245.7,-503.4,-406.8,-561.0,-1072.8,0,0,9192,0,204,0,
5.1100,-223.5,-194.4,-241.2,-502.8,-404.7,-562.5,-1068.0,0,0,9198,0,205,0,
5.1133,-224.7,-207.9,-245.4,-505.2,-405.6,-560.4,-1071.3,0,0,9204,0,206,0,
5.1167,-224.4,-201.9,-238.5,-502.2,-406.2,-559.5,-1073.7,0,0,9210,0,207,0,
5.1200,-222.9,-200.1,-233.7,-501.9,-404.7,-560.4,-1072.5,0,0,9216,0,208,0,
5.1233,-231.3,-199.8,-235.2,-503.7,-408.0,-562.5,-1068.0,0,0,9222,0,209,0,
5.1267,-232.8,-205.2,-243.0,-507.0,-409.2,-569.1,-1079.1,0,0,9228,0,210,0,
5.1300,-233.7,-204.6,-243.0,-502.5,-405.3,-568.5,-1077.9,0,0,9234,0,211,0,
5.1333,-220.2,-195.0,-244.5,-501.6,-401.4,-561.0,-1066.8,0,0,9240,0,212,0,
5.1367,-229.2,-202.2,-239.4,-502.2,-402.9,-565.2,-1068.9,0,0,9246,0,213,0,
5.1400,-234.3,-216.0,-249.3,-504.6,-400.8,-555.9,-1074.6,0,0,9252,0,214,0,
5.1433,-233.1,-211.2,-250.2,-503.7,-409.2,-573.6,-1065.3,0,0,9258,0,215,0,
5.1467,-227.4,-204.9,-244.2,-503.4,-405.3,-567.3,-1075.5,0,0,9264,0,216,0,
5.1500,-234.6,-204.6,-250.8,-505.2,-408.0,-570.3,-1075.2,0,0,9270,0,217,0,
5.1533,-240.9,-213.6,-246.3,-501.9,-408.9,-573.3,-1073.1,0,0,9276,0,218,0,
5.1567,-230.4,-210.3,-250.8,-502.8,-404.7,-565.2,-1072.5,0,0,9282,0,219,0,
5.1600,-224.4,-202.5,-249.0,-502.5,-403.2,-567.0,-1063.8,0,0,9288,0,220,0,
5.1633,-233.4,-210.3,-251.4,-507.0,-410.4,-570.3,-1068.6,0,0,9294,0,221,0,
5.1667,-231.0,-211.5,-251.7,-508.5,-408.6,-570.0,-1065.6,0,0,9300,0,222,0,
5.1700,-226.8,-209.7,-240.9,-502.2,-402.9,-564.3,-1059.6,0,0,9306,0,223,0,
5.1733,-228.6,-222.0,-241.2,-505.5,-403.8,-571.5,-1061.4,0,0,9312,0,224,0,
5.1767,-230.1,-219.3,-243.6,-506.7,-405.6,-574.8,-1072.8,0,0,9318,0,225,0,
5.1800,-227.7,-213.3,-255.0,-507.3,-406.8,-575.4,-1071.9,0,0,9324,0,226,0,
5.1833,-221.7,-204.0,-240.6,-503.1,-408.9,-571.8,-1058.1,0,0,9330,0,227,0,
5.1867,-237.3,-215.4,-249.3,-512.1,-389.7,-587.4,-1075.5,0,0,9336,0,228,0,
5.1900,-216.0,-202.5,-237.9,-498.3,-411.0,-559.8,-1050.3,0,0,9342,0,229,0,
5.1933,-216.6,-202.5,-231.6,-498.6,-410.4,-562.5,-1051.5,0,0,9348,0,230,0,
5.1967,-218.1,-196.2,-237.3,-500.4,-408.0,-564.6,-1052.4,0,0,9354,0,231,0,
5.2000,-228.0,-201.9,-242.7,-505.8,-410.1,-573.6,-1057.5,0,0,9360,0,232,0,
5.2033,-217.5,-207.0,-234.6,-505.8,-408.9,-568.8,-1055.4,0,0,9366,0,233,0,
5.2067,-216.9,-200.1,-228.9,-504.6,-406.8,-564.6,-1050.0,0,0,9372,0,234,0,
5.2100,-213.0,-193.2,-225.0,-500.1,-403.5,-558.6,-1048.8,0,0,9378,0,235,0,
5.2133,-219.6,-198.9,-237.3,-504.6,-405.6,-563.7,-1051.2,0,0,9384,0,236,0,
5.2167,-211.5,-196.5,-229.2,-504.6,-407.4,-560.7,-1043.7,0,0,9390,0,237,0,
5.2200,-209.7,-192.3,-228.6,-502.8,-403.5,-559.2,-1040.4,0,0,9396,0,238,0,
5.2233,-213.3,-193.2,-223.8,-503.7,-404.7,-561.9,-1043.7,0,0,9402,0,239,0,
5.2267,-216.6,-200.7,-230.7,-503.7,-405.6,-561.9,-1039.5,0,0,9408,0,240,0,
5.2300,-213.0,-195.9,-222.9,-501.3,-406.2,-562.5,-1045.5,0,0,9414,0,241,0,
5.2333,-206.7,-199.5,-226.5,-500.1,-405.0,-564.0,-1045.2,0,0,9420,0,242,0,
5.2367,-201.0,-193.8,-224.4,-499.8,-402.9,-559.2,-1035.6,0,0,9426,0,243,0,
5.2400,-213.3,-198.6,-229.2,-505.8,-402.6,-561.9,-1049.1,0,0,9432,0,244,0,
5.2433,-209.1,-195.3,-230.1,-506.7,-404.7,-565.8,-1045.8,0,0,9438,0,245,0,
5.2467,-205.8,-198.6,-238.5,-508.5,-403.2,-559.8,-1035.9,0,0,9444,0,246,0,
5.2500,-204.9,-194.7,-228.0,-503.7,-399.0,-558.9,-1032.6,0,0,9450,0,247,0,
5.2533,-207.0,-195.9,-231.6,-504.0,-397.5,-557.4,-1032.6,0,0,9456,0,248,0,
5.2567,-208.5,-199.8,-237.6,-506.1,-406.5,-562.8,-1034.7,0,0,9462,0,249,0,
5.2600,-209.1,-200.4,-237.3,-508.8,-405.0,-564.9,-1044.9,0,0,9468,0,250,0,
5.2633,-207.6,-197.4,-241.5,-506.1,-400.8,-564.0,-1035.9,0,0,9474,0,251,0,
5.2667,-215.4,-205.5,-242.4,-503.4,-402.0,-558.9,-1043.4,0,0,9480,0,252,0,
5.2700,-210.3,-201.9,-237.9,-503.7,-405.3,-571.5,-1040.1,0,0,9486,0,253,0,
5.2733,-213.6,-201.6,-240.0,-504.0,-404.4,-565.5,-1047.6,0,0,9492,0,254,0,
