# Mains_Frequency_(Hz) =,60,,,,,,,,,,
# Sample_Frequency_(Hz) =,300,,,,,,,,,,
# Sensor_Data_Units =,uV,,,,,,,,,,
# Headset_Name =,DSI-7 SN:23,,,,,,,,,,
# Data_Logger =,DSI-Streamer-v.1.08.119,,,,,,,,,,
# Date =,2/21/2024,,,,,,,,,,
# Time =, 19:00:29.788 ,,,,,,,,,,
# Patient_ID =,X M 01-JAN-2000 X,,,,,,,,,,
# Record_ID =,Startdate 21-FEB-2024 EEG_XX X X,,,,,,,,,,
# EEG Filter Settings =,Non-Filtered,,,,,,,,,,
# Comments =,,,,,,,,,,,
# Reference location:,Pz,,,,,,,,,,
Time,LE,F4,C4,P4,P3,C3,F3,Pz,Trigger,Time_Offset,ADC_Status,ADC_Sequence,Event,Comments
0.0033,125.7,-80.4,24.0,-69.9,-428.7,-109.8,-848.7,0,0,6,0,170,0,
0.0067,118.2,-72.9,22.2,-72.6,-428.7,-113.1,-849.3,0,0,12,0,171,0,
0.0100,124.5,-77.4,21.6,-72.0,-424.8,-113.7,-852.6,0,0,18,0,172,0,
0.0133,124.5,-79.5,19.8,-76.8,-424.8,-114.6,-851.4,0,0,24,0,173,0,
0.0167,119.1,-85.2,19.8,-76.8,-431.7,-116.7,-863.4,0,0,30,0,174,0,
0.0200,115.8,-89.4,17.4,-75.3,-429.3,-107.7,-853.8,0,0,36,0,175,0,
0.0233,113.4,-87.3,16.2,-75.6,-431.4,-119.4,-855.9,0,0,42,0,176,0,
0.0267,123.3,-74.1,24.6,-76.8,-430.2,-117.9,-844.8,0,0,48,0,177,0,
0.0300,125.1,-71.7,17.4,-75.0,-426.9,-112.8,-852.3,0,0,54,0,178,0,
0.0333,120.3,-86.1,20.7,-74.1,-425.4,-116.4,-859.8,0,0,60,0,179,0,
0.0367,110.1,-92.7,13.2,-82.2,-412.5,-135.6,-890.1,0,0,66,0,180,0,
0.0400,132.6,-61.8,31.2,-67.8,-440.4,-95.4,-843.6,0,0,72,0,181,0,
0.0433,123.3,-69.0,19.8,-77.1,-436.8,-112.8,-849.6,0,0,78,0,182,0,
0.0467,115.2,-75.0,18.3,-74.4,-433.5,-110.1,-851.7,0,0,84,0,183,0,
0.0500,120.0,-77.1,20.4,-76.5,-427.5,-117.0,-855.6,0,0,90,0,184,0,
0.0533,119.7,-79.5,20.7,-73.5,-431.7,-119.1,-859.8,0,0,96,0,185,0,
0.0567,126.0,-80.1,18.6,-77.1,-431.1,-119.7,-855.9,0,0,102,0,186,0,
0.0600,129.9,-81.6,19.2,-75.9,-430.8,-114.0,-851.1,0,0,108,0,187,0,
0.0633,120.0,-78.6,21.9,-75.0,-430.5,-119.7,-861.3,0,0,114,0,188,0,
0.0667,116.1,-71.1,19.2,-78.0,-432.9,-124.2,-860.7,0,0,120,0,189,0,
0.0700,120.0,-80.7,18.3,-78.3,-431.4,-125.1,-860.1,0,0,126,0,190,0,
0.0733,119.1,-78.6,16.5,-77.7,-430.8,-122.4,-860.4,0,0,132,0,191,0,
0.0767,121.5,-70.2,15.9,-79.8,-431.4,-123.0,-867.9,0,0,138,0,192,0,
0.0800,117.3,-76.8,12.6,-80.7,-431.1,-122.7,-869.1,0,0,144,0,193,0,
0.0833,120.6,-76.2,10.2,-83.1,-434.4,-124.2,-871.2,0,0,150,0,194,0,
0.0867,124.2,-76.5,9.3,-80.4,-428.4,-120.0,-864.6,0,0,156,0,195,0,
0.0900,115.5,-74.1,8.7,-80.4,-425.1,-130.5,-874.2,0,0,162,0,196,0,
0.0933,117.9,-80.4,3.6,-84.3,-414.6,-135.0,-877.2,0,0,168,0,197,0,
0.0967,132.0,-77.4,22.2,-75.0,-442.8,-105.0,-850.8,0,0,174,0,198,0,
0.1000,124.2,-77.7,17.1,-81.0,-429.0,-121.2,-855.6,0,0,180,0,199,0,
0.1033,119.1,-76.5,15.9,-79.5,-433.5,-123.3,-861.6,0,0,186,0,200,0,
0.1067,114.9,-79.2,11.7,-80.4,-432.3,-126.6,-861.9,0,0,192,0,201,0,
0.1100,119.4,-86.1,10.8,-81.3,-432.6,-124.2,-865.8,0,0,198,0,202,0,
0.1133,121.5,-78.9,9.0,-78.3,-428.4,-120.3,-859.5,0,0,204,0,203,0,
0.1167,118.5,-72.9,9.9,-76.2,-431.1,-124.5,-873.9,0,0,210,0,204,0,
0.1200,119.1,-73.2,6.6,-77.1,-430.5,-126.0,-871.5,0,0,216,0,205,0,
0.1233,126.3,-78.3,10.8,-72.9,-427.5,-123.3,-853.5,0,0,222,0,206,0,
0.1267,123.3,-66.0,16.5,-74.4,-427.5,-121.2,-864.3,0,0,228,0,207,0,
0.1300,122.4,-70.2,11.4,-79.5,-429.9,-122.1,-875.1,0,0,234,0,208,0,
0.1333,121.8,-69.3,16.2,-75.9,-427.2,-126.6,-867.3,0,0,240,0,209,0,
0.1367,122.4,-70.2,16.8,-76.2,-430.8,-126.0,-872.7,0,0,246,0,210,0,
0.1400,124.2,-69.3,17.7,-74.1,-427.2,-120.0,-869.7,0,0,252,0,211,0,
0.1433,120.6,-72.6,12.6,-81.0,-429.6,-119.7,-856.8,0,0,258,0,212,0,
0.1467,117.6,-74.4,10.8,-78.6,-416.1,-138.9,-860.7,0,0,264,0,213,0,
0.1500,113.4,-76.8,11.4,-80.1,-418.8,-128.4,-864.0,0,0,270,0,214,0,
0.1533,132.6,-66.9,26.1,-69.6,-439.2,-109.5,-856.8,0,0,276,0,215,0,
0.1567,119.7,-72.0,20.1,-79.2,-429.3,-117.3,-870.6,0,0,282,0,216,0,
0.1600,120.0,-78.6,16.2,-78.9,-432.9,-118.5,-860.1,0,0,288,0,217,0,
0.1633,113.7,-73.2,11.7,-83.4,-433.5,-120.3,-865.8,0,0,294,0,218,0,
0.1667,122.1,-75.0,8.7,-79.5,-427.5,-119.7,-859.5,0,0,300,0,219,0,
0.1700,124.5,-67.8,14.4,-76.8,-429.9,-111.9,-861.6,0,0,306,0,220,0,
0.1733,127.5,-74.4,14.1,-79.2,-429.6,-115.5,-862.8,0,0,312,0,221,0,
0.1767,129.0,-75.3,14.1,-79.8,-430.2,-114.0,-864.0,0,0,318,0,222,0,
0.1800,132.0,-62.4,18.9,-75.9,-426.3,-111.6,-848.1,0,0,324,0,223,0,
0.1833,129.0,-69.9,16.2,-77.7,-427.2,-111.9,-860.1,0,0,330,0,224,0,
0.1867,126.9,-70.5,17.1,-75.0,-427.5,-108.6,-861.6,0,0,336,0,225,0,
0.1900,126.3,-72.0,17.7,-75.6,-424.2,-107.4,-856.5,0,0,342,0,226,0,
0.1933,124.5,-74.7,15.6,-78.3,-425.7,-105.9,-853.8,0,0,348,0,227,0,
0.1967,128.7,-70.8,16.8,-73.8,-425.1,-111.6,-850.2,0,0,354,0,228,0,
0.2000,120.9,-75.6,15.9,-76.2,-427.2,-117.3,-858.9,0,0,360,0,229,0,
0.2033,126.0,-71.4,16.5,-77.4,-425.4,-111.9,-857.4,0,0,366,0,230,0,
0.2067,123.9,-71.1,22.5,-72.6,-422.1,-111.6,-854.1,0,0,372,0,231,0,
0.2100,123.3,-68.4,16.2,-70.8,-423.9,-117.3,-867.0,0,0,378,0,232,0,
0.2133,113.1,-77.1,12.9,-76.8,-408.0,-130.8,-865.2,0,0,384,0,233,0,
0.2167,131.1,-60.0,24.6,-69.0,-438.0,-100.5,-852.6,0,0,390,0,234,0,
0.2200,124.5,-61.2,18.9,-68.7,-430.8,-108.0,-856.5,0,0,396,0,235,0,
0.2233,124.2,-65.1,15.6,-69.6,-429.0,-112.5,-871.8,0,0,402,0,236,0,
0.2267,119.1,-68.7,13.8,-70.8,-424.8,-115.5,-870.3,0,0,408,0,237,0,
0.2300,119.7,-66.0,19.5,-70.2,-423.0,-113.1,-866.7,0,0,414,0,238,0,
0.2333,121.8,-69.3,18.9,-71.7,-420.9,-111.3,-868.2,0,0,420,0,239,0,
0.2367,123.0,-67.8,15.9,-75.3,-423.0,-106.8,-870.9,0,0,426,0,240,0,
0.2400,118.8,-69.9,15.0,-75.9,-423.9,-108.9,-869.7,0,0,432,0,241,0,
0.2433,126.0,-71.7,17.1,-75.9,-423.0,-116.7,-864.6,0,0,438,0,242,0,
0.2467,123.6,-66.6,21.0,-75.9,-424.5,-114.0,-861.3,0,0,444,0,243,0,
0.2500,126.6,-57.3,21.3,-76.8,-421.8,-111.6,-844.8,0,0,450,0,244,0,
0.2533,119.7,-65.4,17.4,-77.1,-423.3,-113.4,-858.6,0,0,456,0,245,0,
0.2567,123.0,-66.3,16.8,-75.3,-420.3,-107.7,-853.2,0,0,462,0,246,0,
0.2600,128.4,-63.6,18.0,-76.5,-423.6,-111.6,-857.4,0,0,468,0,247,0,
0.2633,129.0,-64.5,20.7,-72.9,-422.1,-108.3,-851.7,0,0,474,0,248,0,
0.2667,125.4,-58.5,18.9,-73.5,-426.0,-109.8,-867.3,0,0,480,0,249,0,
0.2700,129.3,-51.9,21.6,-70.5,-420.9,-105.9,-868.8,0,0,486,0,250,0,
0.2733,126.6,-66.6,16.8,-75.9,-424.5,-112.8,-873.0,0,0,492,0,251,0,
0.2767,118.2,-69.3,19.2,-79.5,-418.5,-121.8,-876.9,0,0,498,0,252,0,
0.2800,121.5,-72.6,17.1,-78.9,-414.6,-125.1,-883.8,0,0,504,0,253,0,
0.2833,131.7,-57.9,26.7,-72.9,-444.0,-101.4,-861.0,0,0,510,0,254,0,
0.2867,127.2,-66.3,19.2,-72.9,-426.6,-114.3,-868.5,0,0,516,0,255,0,
0.2900,123.6,-69.9,25.2,-72.6,-431.7,-116.4,-872.7,0,0,522,0,0,0,
0.2933,120.9,-74.1,21.9,-72.0,-427.2,-116.4,-874.2,0,0,528,0,1,0,
0.2967,114.3,-75.9,18.0,-73.8,-427.5,-115.8,-881.7,0,0,534,0,2,0,
0.3000,112.8,-81.0,11.1,-77.1,-428.1,-120.3,-882.0,0,0,540,0,3,0,
0.3033,121.5,-75.3,11.4,-78.6,-427.8,-113.7,-872.4,0,0,546,0,4,0,
0.3067,123.9,-72.9,14.7,-75.3,-423.9,-114.3,-870.9,0,0,552,0,5,0,
0.3100,120.9,-77.4,19.2,-72.6,-424.5,-116.4,-879.3,0,0,558,0,6,0,
0.3133,117.0,-79.2,18.0,-73.5,-426.9,-119.1,-880.8,0,0,564,0,7,0,
0.3167,123.6,-81.6,16.8,-78.9,-429.3,-120.0,-870.3,0,0,570,0,8,0,
0.3200,122.7,-89.7,11.7,-78.9,-425.7,-118.2,-876.9,0,0,576,0,9,0,
0.3233,126.6,-86.4,17.7,-73.5,-425.4,-115.2,-877.8,0,0,582,0,10,0,
0.3267,129.9,-71.4,17.7,-79.8,-426.3,-116.4,-874.5,0,0,588,0,11,0,
0.3300,130.5,-73.8,10.8,-76.2,-426.9,-115.2,-876.6,0,0,594,0,12,0,
0.3333,125.4,-77.7,10.8,-80.4,-429.9,-115.5,-900.0,0,0,600,0,13,0,
0.3367,122.1,-82.2,16.5,-78.6,-426.6,-112.8,-896.1,0,0,606,0,14,0,
0.3400,123.3,-83.7,11.1,-84.9,-427.8,-121.2,-902.7,0,0,612,0,15,0,
0.3433,127.5,-78.9,11.7,-78.6,-427.2,-114.6,-887.4,0,0,618,0,16,0,
0.3467,120.0,-91.8,6.9,-81.6,-416.1,-132.0,-889.5,0,0,624,0,17,0,
0.3500,112.8,-98.7,3.6,-85.8,-414.6,-129.6,-888.9,0,0,630,0,18,0,
0.3533,130.2,-86.4,10.2,-79.2,-441.3,-103.2,-874.8,0,0,636,0,19,0,
0.3567,123.9,-82.8,10.2,-82.8,-429.0,-115.8,-879.0,0,0,642,0,20,0,
0.3600,123.6,-82.5,11.1,-82.2,-429.0,-112.5,-877.8,0,0,648,0,21,0,
0.3633,118.2,-90.0,11.4,-85.5,-429.6,-115.8,-884.4,0,0,654,0,22,0,
0.3667,115.2,-93.3,8.4,-84.6,-428.1,-117.0,-890.4,0,0,660,0,23,0,
0.3700,118.5,-88.5,8.7,-88.5,-429.9,-117.0,-889.2,0,0,666,0,24,0,
0.3733,120.3,-88.2,9.0,-87.9,-431.4,-117.9,-889.5,0,0,672,0,25,0,
0.3767,114.9,-87.6,5.7,-87.6,-430.2,-117.3,-887.7,0,0,678,0,26,0,
0.3800,109.8,-85.8,3.3,-87.3,-431.1,-119.7,-892.2,0,0,684,0,27,0,
0.3833,109.2,-85.2,0.9,-86.1,-432.3,-117.3,-889.8,0,0,690,0,28,0,
0.3867,104.4,-86.1,1.5,-84.9,-430.8,-124.2,-894.0,0,0,696,0,29,0,
0.3900,105.6,-96.6,1.2,-82.2,-432.0,-124.5,-898.8,0,0,702,0,30,0,
0.3933,104.7,-89.1,5.7,-81.0,-432.9,-122.1,-906.0,0,0,708,0,31,0,
0.3967,101.1,-91.8,1.5,-82.8,-432.0,-127.5,-900.9,0,0,714,0,32,0,
0.4000,108.9,-78.3,6.6,-80.4,-431.1,-119.4,-887.4,0,0,720,0,33,0,
0.4033,108.9,-85.5,7.2,-78.6,-429.6,-117.9,-882.3,0,0,726,0,34,0,
0.4067,96.9,-92.7,-1.5,-80.4,-432.9,-124.5,-892.8,0,0,732,0,35,0,
0.4100,101.4,-77.4,3.9,-75.6,-429.9,-116.4,-898.8,0,0,738,0,36,0,
0.4133,100.8,-83.7,3.0,-78.9,-429.0,-121.8,-895.5,0,0,744,0,37,0,
0.4167,103.8,-88.5,12.0,-75.9,-431.1,-120.3,-888.0,0,0,750,0,38,0,
0.4200,88.8,-96.6,-2.7,-87.0,-417.0,-137.1,-898.8,0,0,756,0,39,0,
0.4233,103.2,-75.6,9.0,-79.8,-426.6,-115.5,-882.0,0,0,762,0,40,0,
0.4267,114.0,-65.4,17.1,-72.0,-438.0,-100.5,-875.4,0,0,768,0,41,0,
0.4300,109.8,-71.1,16.2,-72.6,-429.0,-114.3,-878.1,0,0,774,0,42,0,
0.4333,105.0,-80.7,11.4,-77.1,-437.4,-119.4,-896.4,0,0,780,0,43,0,
0.4367,104.1,-82.2,11.7,-75.3,-435.0,-123.0,-898.5,0,0,786,0,44,0,
0.4400,108.9,-77.1,10.5,-78.9,-432.9,-116.7,-888.3,0,0,792,0,45,0,
0.4433,116.1,-68.1,17.7,-75.0,-431.1,-112.8,-875.7,0,0,798,0,46,0,
0.4467,114.6,-73.5,12.9,-74.7,-432.3,-118.2,-893.4,0,0,804,0,47,0,
0.4500,116.1,-94.5,5.1,-74.7,-432.6,-115.8,-891.0,0,0,810,0,48,0,
0.4533,110.4,-91.2,6.9,-76.8,-432.0,-114.6,-891.3,0,0,816,0,49,0,
0.4567,111.9,-81.9,3.3,-79.2,-435.3,-123.6,-902.4,0,0,822,0,50,0,
0.4600,108.0,-79.5,3.9,-79.8,-432.0,-115.2,-896.7,0,0,828,0,51,0,
0.4633,105.3,-85.5,-0.3,-80.7,-432.3,-117.9,-892.5,0,0,834,0,52,0,
0.4667,110.1,-76.5,4.8,-81.0,-432.6,-117.9,-876.3,0,0,840,0,53,0,
0.4700,118.2,-70.2,7.2,-79.2,-431.1,-115.2,-873.9,0,0,846,0,54,0,
0.4733,117.9,-87.9,11.1,-76.5,-431.4,-113.7,-885.6,0,0,852,0,55,0,
0.4767,116.7,-80.7,13.8,-77.1,-431.1,-110.7,-879.6,0,0,858,0,56,0,
0.4800,119.7,-80.7,7.8,-78.3,-429.6,-112.8,-872.7,0,0,864,0,57,0,
0.4833,113.7,-78.3,3.6,-78.9,-427.2,-109.5,-881.7,0,0,870,0,58,0,
0.4867,109.8,-81.3,3.6,-84.0,-430.8,-110.4,-885.3,0,0,876,0,59,0,
0.4900,116.1,-90.3,0.3,-84.9,-432.3,-117.3,-884.7,0,0,882,0,60,0,
0.4933,113.7,-89.4,-0.9,-84.9,-432.3,-120.6,-884.4,0,0,888,0,61,0,
0.4967,115.5,-82.2,1.2,-82.8,-429.9,-113.4,-884.7,0,0,894,0,62,0,
0.5000,122.7,-80.4,-1.5,-84.9,-426.3,-112.8,-879.3,0,0,900,0,63,0,
0.5033,119.4,-85.2,0.6,-81.9,-431.4,-117.9,-882.9,0,0,906,0,64,0,
0.5067,107.7,-97.5,-10.2,-92.7,-415.2,-139.2,-895.8,0,0,912,0,65,0,
0.5100,130.5,-75.6,2.4,-80.4,-436.8,-103.8,-876.3,0,0,918,0,66,0,
0.5133,125.7,-78.9,2.1,-79.2,-439.2,-109.5,-890.1,0,0,924,0,67,0,
0.5167,122.4,-87.9,4.2,-80.4,-436.2,-113.4,-903.0,0,0,930,0,68,0,
0.5200,122.7,-88.2,-1.5,-82.2,-433.2,-110.4,-885.6,0,0,936,0,69,0,
0.5233,122.7,-89.1,3.3,-79.5,-434.1,-113.1,-878.1,0,0,942,0,70,0,
0.5267,125.7,-82.8,0.6,-76.5,-431.1,-118.8,-872.4,0,0,948,0,71,0,
0.5300,128.1,-79.5,2.1,-78.6,-436.2,-117.9,-877.5,0,0,954,0,72,0,
0.5333,122.1,-88.2,-0.9,-78.6,-437.1,-117.3,-885.6,0,0,960,0,73,0,
0.5367,121.5,-88.8,2.7,-76.2,-433.5,-112.8,-885.9,0,0,966,0,74,0,
0.5400,120.6,-82.8,1.2,-78.0,-432.6,-114.6,-887.1,0,0,972,0,75,0,
0.5433,122.4,-87.0,3.3,-78.0,-432.9,-118.8,-882.0,0,0,978,0,76,0,
0.5467,111.0,-93.6,2.7,-83.1,-436.8,-124.2,-891.9,0,0,984,0,77,0,
0.5500,116.7,-92.1,3.3,-82.2,-434.4,-120.9,-883.8,0,0,990,0,78,0,
0.5533,129.3,-77.1,5.1,-84.3,-432.9,-117.3,-868.2,0,0,996,0,79,0,
0.5567,123.9,-82.8,3.9,-85.5,-434.7,-120.6,-877.8,0,0,1002,0,80,0,
0.5600,122.4,-84.0,2.4,-85.8,-431.4,-118.8,-873.9,0,0,1008,0,81,0,
0.5633,121.5,-87.9,3.9,-86.7,-431.7,-122.7,-876.0,0,0,1014,0,82,0,
0.5667,123.9,-85.5,8.4,-83.1,-433.2,-123.6,-879.9,0,0,1020,0,83,0,
0.5700,115.8,-83.7,-0.3,-84.6,-432.0,-119.7,-879.9,0,0,1026,0,84,0,
0.5733,121.5,-89.1,7.2,-81.6,-433.2,-119.7,-872.1,0,0,1032,0,85,0,
0.5767,118.5,-85.5,1.8,-85.5,-432.3,-121.8,-869.4,0,0,1038,0,86,0,
0.5800,124.2,-87.0,4.5,-80.1,-431.7,-118.8,-878.4,0,0,1044,0,87,0,
0.5833,128.1,-81.0,5.4,-80.7,-428.4,-120.9,-875.1,0,0,1050,0,88,0,
0.5867,119.1,-90.3,2.1,-85.2,-428.7,-134.7,-874.5,0,0,1056,0,89,0,
0.5900,109.8,-108.3,-6.3,-89.1,-415.2,-141.0,-872.1,0,0,1062,0,90,0,
0.5933,133.5,-81.6,8.7,-78.0,-445.8,-104.1,-846.0,0,0,1068,0,91,0,
0.5967,126.9,-84.0,7.2,-83.1,-433.8,-117.0,-854.1,0,0,1074,0,92,0,
0.6000,123.9,-84.9,6.3,-81.3,-438.3,-118.2,-855.0,0,0,1080,0,93,0,
0.6033,118.8,-95.7,3.0,-82.2,-429.9,-120.3,-864.0,0,0,1086,0,94,0,
0.6067,115.5,-96.0,4.8,-85.5,-434.1,-124.2,-864.3,0,0,1092,0,95,0,
0.6100,120.9,-99.6,6.6,-84.6,-432.0,-121.8,-863.7,0,0,1098,0,96,0,
0.6133,117.6,-82.8,11.4,-79.8,-429.6,-118.5,-862.5,0,0,1104,0,97,0,
0.6167,115.8,-93.9,3.6,-79.8,-430.5,-126.6,-870.6,0,0,1110,0,98,0,
0.6200,117.3,-89.1,8.1,-81.6,-437.7,-127.5,-866.7,0,0,1116,0,99,0,
0.6233,121.2,-92.1,8.4,-77.1,-429.3,-123.6,-852.9,0,0,1122,0,100,0,
0.6267,111.3,-96.3,1.5,-77.7,-432.6,-122.1,-863.7,0,0,1128,0,101,0,
0.6300,110.4,-96.6,-0.6,-81.9,-433.5,-125.1,-866.4,0,0,1134,0,102,0,
0.6333,111.9,-99.9,1.5,-81.0,-435.6,-123.3,-863.7,0,0,1140,0,103,0,
0.6367,113.4,-91.5,5.4,-79.2,-432.0,-123.0,-857.4,0,0,1146,0,104,0,
0.6400,113.1,-84.9,6.0,-78.9,-432.3,-125.4,-853.8,0,0,1152,0,105,0,
0.6433,116.4,-94.8,4.8,-80.4,-432.3,-123.9,-859.5,0,0,1158,0,106,0,
0.6467,109.5,-94.2,3.3,-78.3,-433.8,-123.3,-851.1,0,0,1164,0,107,0,
0.6500,119.7,-93.0,4.8,-77.7,-433.2,-120.9,-840.9,0,0,1170,0,108,0,
0.6533,114.0,-95.7,1.8,-80.7,-432.6,-122.7,-849.9,0,0,1176,0,109,0,
0.6567,124.2,-87.9,9.3,-77.7,-430.8,-114.6,-848.1,0,0,1182,0,110,0,
0.6600,114.6,-89.7,10.2,-76.2,-425.4,-113.4,-840.9,0,0,1188,0,111,0,
0.6633,115.2,-103.8,6.9,-78.6,-431.7,-114.9,-844.2,0,0,1194,0,112,0,
0.6667,107.1,-108.9,0.9,-84.0,-406.8,-133.2,-860.4,0,0,1200,0,113,0,
0.6700,126.6,-86.4,11.7,-70.8,-427.8,-107.4,-840.9,0,0,1206,0,114,0,
0.6733,132.0,-74.4,22.2,-68.1,-429.3,-104.7,-840.3,0,0,1212,0,115,0,
0.6767,126.6,-79.8,15.0,-72.3,-421.8,-109.2,-845.1,0,0,1218,0,116,0,
0.6800,124.8,-73.2,15.6,-72.0,-420.9,-111.9,-853.2,0,0,1224,0,117,0,
0.6833,124.8,-76.8,14.1,-74.7,-421.8,-114.3,-846.0,0,0,1230,0,118,0,
0.6867,125.1,-88.2,12.3,-74.4,-420.6,-112.2,-845.7,0,0,1236,0,119,0,
0.6900,127.8,-89.7,13.8,-74.7,-417.0,-112.8,-848.7,0,0,1242,0,120,0,
0.6933,119.7,-98.7,7.5,-74.7,-416.7,-114.6,-851.1,0,0,1248,0,121,0,
0.6967,126.0,-90.3,6.9,-75.0,-420.0,-116.7,-849.0,0,0,1254,0,122,0,
0.7000,126.9,-87.3,12.6,-73.8,-420.0,-113.4,-855.0,0,0,1260,0,123,0,
0.7033,124.2,-93.6,9.9,-72.3,-420.3,-119.1,-849.6,0,0,1266,0,124,0,
0.7067,123.9,-93.9,9.9,-72.3,-418.2,-115.2,-856.8,0,0,1272,0,125,0,
0.7100,123.6,-84.9,9.3,-76.5,-425.4,-119.1,-853.8,0,0,1278,0,126,0,
0.7133,123.9,-90.0,9.6,-78.6,-424.8,-120.3,-853.8,0,0,1284,0,127,0,
0.7167,123.9,-94.5,13.2,-75.3,-423.0,-117.0,-845.4,0,0,1290,0,128,0,
0.7200,122.4,-90.9,10.2,-74.7,-421.8,-116.7,-851.7,0,0,1296,0,129,0,
0.7233,129.3,-92.7,13.2,-72.6,-419.1,-120.9,-853.8,0,0,1302,0,130,0,
0.7267,120.3,-90.3,6.3,-78.3,-420.9,-120.6,-858.3,0,0,1308,0,131,0,
0.7300,117.9,-84.9,11.7,-75.3,-426.0,-126.0,-851.7,0,0,1314,0,132,0,
0.7333,119.4,-90.9,12.6,-73.5,-425.7,-121.5,-855.0,0,0,1320,0,133,0,
0.7367,116.1,-97.5,11.7,-75.0,-426.6,-127.8,-862.5,0,0,1326,0,134,0,
0.7400,117.0,-93.9,9.3,-76.2,-424.2,-123.0,-858.3,0,0,1332,0,135,0,
0.7433,117.3,-86.4,8.7,-76.8,-424.2,-121.5,-860.7,0,0,1338,0,136,0,
0.7467,116.7,-84.9,4.8,-76.5,-417.6,-118.8,-857.4,0,0,1344,0,137,0,
0.7500,114.0,-83.1,12.3,-74.4,-417.6,-119.1,-856.8,0,0,1350,0,138,0,
0.7533,110.4,-95.4,6.0,-80.7,-400.2,-134.7,-876.3,0,0,1356,0,139,0,
0.7567,119.7,-89.4,21.6,-71.4,-431.7,-107.7,-862.8,0,0,1362,0,140,0,
0.7600,120.9,-91.8,13.8,-74.7,-424.8,-111.6,-857.1,0,0,1368,0,141,0,
0.7633,119.4,-87.9,9.3,-77.1,-424.2,-115.8,-849.0,0,0,1374,0,142,0,
0.7667,132.0,-76.8,10.2,-72.0,-418.8,-109.5,-844.2,0,0,1380,0,143,0,
0.7700,124.5,-90.0,5.7,-76.2,-423.0,-114.9,-858.0,0,0,1386,0,144,0,
0.7733,122.7,-87.0,6.9,-76.2,-424.5,-113.7,-867.3,0,0,1392,0,145,0,
0.7767,118.2,-90.0,5.4,-77.1,-426.3,-117.6,-856.8,0,0,1398,0,146,0,
0.7800,126.6,-78.3,9.9,-71.4,-419.4,-110.7,-852.9,0,0,1404,0,147,0,
0.7833,124.2,-84.6,12.3,-70.8,-421.2,-111.9,-847.8,0,0,1410,0,148,0,
0.7867,123.9,-80.7,15.3,-69.6,-421.2,-117.0,-840.6,0,0,1416,0,149,0,
0.7900,120.3,-83.7,11.7,-69.6,-417.3,-115.2,-838.8,0,0,1422,0,150,0,
0.7933,117.0,-93.3,13.5,-72.6,-417.3,-115.5,-846.0,0,0,1428,0,151,0,
0.7967,117.6,-92.4,11.1,-71.7,-419.7,-114.3,-850.2,0,0,1434,0,152,0,
0.8000,117.3,-87.6,11.1,-68.1,-416.7,-114.6,-849.6,0,0,1440,0,153,0,
0.8033,112.5,-93.9,8.4,-71.4,-417.3,-117.0,-858.6,0,0,1446,0,154,0,
0.8067,120.3,-79.8,11.1,-69.9,-414.9,-114.6,-844.5,0,0,1452,0,155,0,
0.8100,117.6,-80.4,12.0,-66.3,-414.9,-110.1,-845.1,0,0,1458,0,156,0,
0.8133,112.2,-91.2,7.5,-69.6,-417.6,-113.4,-846.3,0,0,1464,0,157,0,
0.8167,117.9,-86.7,11.7,-70.2,-413.7,-114.3,-843.0,0,0,1470,0,158,0,
0.8200,114.3,-86.1,10.2,-70.2,-420.3,-118.8,-849.6,0,0,1476,0,159,0,
0.8233,110.4,-94.5,4.8,-79.5,-401.1,-137.4,-855.3,0,0,1482,0,160,0,
0.8267,118.5,-84.6,15.6,-71.4,-420.3,-107.1,-839.1,0,0,1488,0,161,0,
0.8300,119.1,-85.5,9.0,-72.9,-430.2,-108.0,-849.3,0,0,1494,0,162,0,
0.8333,120.0,-77.7,13.8,-69.6,-418.8,-113.4,-841.8,0,0,1500,0,163,0,
0.8367,115.2,-89.4,9.3,-71.4,-420.6,-117.0,-853.8,0,0,1506,0,164,0,
0.8400,111.9,-97.5,7.2,-75.3,-423.3,-120.0,-858.0,0,0,1512,0,165,0,
0.8433,112.8,-93.3,8.4,-74.4,-420.3,-118.8,-860.4,0,0,1518,0,166,0,
0.8467,108.9,-94.8,7.5,-74.4,-419.4,-119.7,-864.6,0,0,1524,0,167,0,
0.8500,113.4,-95.1,6.9,-75.9,-419.1,-117.0,-858.0,0,0,1530,0,168,0,
0.8533,117.9,-94.8,12.0,-72.9,-416.1,-117.0,-852.9,0,0,1536,0,169,0,
0.8567,107.4,-104.4,7.5,-79.8,-418.5,-123.9,-859.5,0,0,1542,0,170,0,
0.8600,111.6,-88.2,9.0,-80.4,-417.9,-119.4,-857.4,0,0,1548,0,171,0,
0.8633,114.9,-91.2,10.2,-75.0,-416.7,-114.3,-850.5,0,0,1554,0,172,0,
0.8667,114.9,-88.5,2.4,-78.9,-417.3,-111.6,-852.0,0,0,1560,0,173,0,
0.8700,116.7,-91.8,0.9,-73.8,-416.1,-117.0,-859.5,0,0,1566,0,174,0,
0.8733,113.7,-89.1,2.4,-75.9,-418.5,-114.3,-857.4,0,0,1572,0,175,0,
0.8767,117.3,-93.3,2.7,-74.4,-417.0,-114.9,-858.9,0,0,1578,0,176,0,
0.8800,110.7,-93.9,-0.3,-75.9,-416.1,-118.2,-861.6,0,0,1584,0,177,0,
0.8833,117.6,-94.5,5.1,-75.0,-416.4,-116.4,-856.8,0,0,1590,0,178,0,
0.8867,114.9,-88.5,5.1,-72.0,-414.9,-113.1,-846.3,0,0,1596,0,179,0,
0.8900,113.7,-88.2,9.0,-70.5,-413.7,-109.5,-852.0,0,0,1602,0,180,0,
0.8933,116.7,-90.9,7.2,-69.9,-408.9,-108.6,-858.0,0,0,1608,0,181,0,
0.8967,116.4,-93.9,9.0,-70.5,-411.0,-110.7,-858.0,0,0,1614,0,182,0,
0.9000,122.1,-87.3,4.2,-67.5,-413.4,-114.0,-852.9,0,0,1620,0,183,0,
0.9033,120.9,-99.3,6.9,-67.5,-408.6,-114.0,-847.2,0,0,1626,0,184,0,
0.9067,117.0,-92.4,7.2,-68.1,-413.1,-120.9,-853.8,0,0,1632,0,185,0,
0.9100,115.2,-93.0,7.5,-72.3,-414.0,-119.1,-871.2,0,0,1638,0,186,0,
0.9133,120.6,-92.1,6.3,-69.6,-414.0,-121.5,-862.8,0,0,1644,0,187,0,
0.9167,104.1,-102.3,2.1,-79.2,-396.6,-137.7,-876.0,0,0,1650,0,188,0,
0.9200,126.0,-84.3,14.1,-65.7,-418.5,-109.5,-856.5,0,0,1656,0,189,0,
0.9233,124.2,-86.4,13.8,-66.6,-424.2,-105.9,-843.9,0,0,1662,0,190,0,
0.9267,120.6,-106.5,7.5,-69.9,-417.3,-116.7,-850.5,0,0,1668,0,191,0,
0.9300,119.1,-100.8,-0.3,-70.8,-417.0,-116.7,-858.9,0,0,1674,0,192,0,
0.9333,114.0,-94.2,2.1,-69.6,-416.1,-114.6,-858.6,0,0,1680,0,193,0,
0.9367,108.0,-106.5,-2.7,-76.5,-417.0,-119.4,-870.3,0,0,1686,0,194,0,
0.9400,108.6,-117.3,-8.7,-78.0,-417.3,-119.7,-867.6,0,0,1692,0,195,0,
0.9433,118.2,-99.9,-5.7,-76.8,-415.2,-114.6,-855.3,0,0,1698,0,196,0,
0.9467,120.3,-100.2,-6.0,-75.0,-413.7,-111.9,-865.8,0,0,1704,0,197,0,
0.9500,117.6,-101.4,-2.7,-78.3,-416.1,-112.5,-868.2,0,0,1710,0,198,0,
0.9533,115.8,-92.7,1.5,-75.6,-416.1,-110.1,-862.2,0,0,1716,0,199,0,
0.9567,111.6,-107.1,-6.3,-81.6,-420.3,-120.9,-865.2,0,0,1722,0,200,0,
0.9600,116.7,-98.7,0.3,-75.6,-416.7,-122.1,-856.8,0,0,1728,0,201,0,
0.9633,112.5,-98.4,-0.6,-76.5,-420.0,-120.0,-863.4,0,0,1734,0,202,0,
0.9667,110.4,-106.5,-1.2,-78.9,-421.5,-127.5,-873.3,0,0,1740,0,203,0,
0.9700,120.9,-104.1,0.0,-75.3,-419.1,-123.9,-864.0,0,0,1746,0,204,0,
0.9733,113.4,-112.2,-4.5,-79.2,-423.9,-127.2,-878.4,0,0,1752,0,205,0,
0.9767,116.1,-110.4,-3.9,-80.4,-420.6,-125.1,-869.4,0,0,1758,0,206,0,
0.9800,115.8,-106.8,-3.3,-78.3,-420.0,-123.0,-861.6,0,0,1764,0,207,0,
0.9833,117.0,-102.6,4.5,-77.1,-422.1,-125.4,-864.0,0,0,1770,0,208,0,
0.9867,112.8,-107.4,-6.0,-80.4,-420.6,-126.9,-865.8,0,0,1776,0,209,0,
0.9900,118.5,-103.2,-4.5,-75.9,-417.6,-123.0,-865.5,0,0,1782,0,210,0,
0.9933,116.4,-111.0,-5.1,-74.7,-417.9,-121.5,-873.6,0,0,1788,0,211,0,
0.9967,111.9,-120.3,-6.3,-80.1,-414.3,-127.5,-882.0,0,0,1794,0,212,0,
1.0000,104.7,-119.4,-12.3,-84.6,-404.4,-139.2,-885.0,0,0,1800,0,213,0,
1.0033,128.1,-95.1,3.0,-72.3,-434.4,-106.2,-870.3,0,0,1806,0,214,0,
1.0067,117.6,-101.7,0.9,-76.2,-423.6,-120.0,-872.1,0,0,1812,0,215,0,
1.0100,116.1,-108.9,-0.9,-80.4,-426.0,-121.5,-873.0,0,0,1818,0,216,0,
1.0133,111.9,-102.6,-1.2,-81.3,-419.7,-123.3,-879.0,0,0,1824,0,217,0,
1.0167,114.6,-104.1,-1.8,-79.8,-423.0,-123.9,-880.2,0,0,1830,0,218,0,
1.0200,113.7,-96.9,-0.3,-77.1,-418.2,-122.7,-875.1,0,0,1836,0,219,0,
1.0233,114.0,-95.1,1.5,-76.2,-420.9,-123.6,-869.1,0,0,1842,0,220,0,
1.0267,104.7,-106.5,-5.1,-84.6,-425.4,-131.1,-880.5,0,0,1848,0,221,0,
1.0300,111.3,-114.6,-11.1,-81.9,-419.4,-125.7,-871.5,0,0,1854,0,222,0,
1.0333,105.0,-114.0,-11.7,-81.6,-422.1,-124.8,-864.3,0,0,1860,0,223,0,
1.0367,104.1,-116.4,-14.4,-83.7,-424.2,-131.4,-866.7,0,0,1866,0,224,0,
1.0400,101.7,-110.7,-9.3,-80.7,-424.8,-133.5,-875.4,0,0,1872,0,225,0,
1.0433,108.6,-94.2,-4.2,-78.0,-423.9,-131.7,-875.7,0,0,1878,0,226,0,
1.0467,113.4,-83.4,0.3,-76.5,-417.9,-122.1,-869.4,0,0,1884,0,227,0,
1.0500,108.0,-93.3,-3.0,-75.0,-416.4,-118.5,-879.3,0,0,1890,0,228,0,
1.0533,109.8,-97.5,2.7,-72.0,-418.2,-117.9,-877.2,0,0,1896,0,229,0,
1.0567,111.0,-87.6,0.6,-75.0,-420.3,-126.9,-874.5,0,0,1902,0,230,0,
1.0600,103.5,-89.7,-1.5,-73.2,-420.0,-129.9,-880.2,0,0,1908,0,231,0,
1.0633,113.4,-94.5,3.6,-70.5,-417.3,-126.0,-875.7,0,0,1914,0,232,0,
1.0667,123.6,-75.3,9.0,-68.4,-413.1,-116.4,-861.0,0,0,1920,0,233,0,
1.0700,108.6,-81.6,1.5,-71.7,-416.7,-123.3,-885.6,0,0,1926,0,234,0,
1.0733,108.6,-88.2,5.1,-77.1,-421.5,-125.4,-885.0,0,0,1932,0,235,0,
1.0767,114.9,-76.2,2.1,-74.7,-420.0,-125.1,-873.3,0,0,1938,0,236,0,
1.0800,114.6,-74.7,7.2,-72.0,-420.6,-122.1,-872.1,0,0,1944,0,237,0,
1.0833,104.4,-91.8,-4.5,-77.4,-400.8,-143.1,-880.2,0,0,1950,0,238,0,
1.0867,114.0,-82.2,5.7,-73.8,-422.4,-118.2,-867.9,0,0,1956,0,239,0,
1.0900,127.2,-80.4,8.7,-68.7,-425.1,-109.8,-865.8,0,0,1962,0,240,0,
1.0933,120.6,-74.7,14.4,-68.4,-411.0,-111.3,-863.7,0,0,1968,0,241,0,
1.0967,117.3,-81.0,6.0,-68.4,-415.5,-116.4,-866.1,0,0,1974,0,242,0,
1.1000,119.4,-87.3,5.7,-66.0,-414.9,-116.4,-874.5,0,0,1980,0,243,0,
1.1033,116.7,-83.4,5.1,-68.4,-412.5,-116.7,-884.1,0,0,1986,0,244,0,
1.1067,113.1,-79.5,-0.9,-71.4,-413.7,-116.7,-892.2,0,0,1992,0,245,0,
1.1100,117.9,-80.7,2.4,-70.2,-414.3,-121.5,-872.1,0,0,1998,0,246,0,
1.1133,120.0,-83.4,4.2,-67.8,-413.1,-119.1,-870.6,0,0,2004,0,247,0,
1.1167,126.0,-80.7,7.8,-66.0,-412.8,-118.2,-864.3,0,0,2010,0,248,0,
1.1200,128.4,-76.2,7.8,-65.7,-408.6,-113.4,-867.6,0,0,2016,0,249,0,
1.1233,124.2,-78.3,3.6,-66.9,-413.4,-118.2,-870.0,0,0,2022,0,250,0,
1.1267,120.9,-90.0,1.2,-70.5,-414.9,-119.1,-870.3,0,0,2028,0,251,0,
1.1300,118.5,-84.3,6.0,-69.9,-412.5,-120.9,-868.8,0,0,2034,0,252,0,
1.1333,117.9,-87.3,8.7,-68.4,-410.4,-113.4,-872.1,0,0,2040,0,253,0,
1.1367,114.9,-92.4,1.8,-71.1,-411.9,-118.8,-875.1,0,0,2046,0,254,0,
1.1400,119.7,-84.0,1.2,-68.1,-413.1,-115.8,-867.6,0,0,2052,0,255,0,
1.1433,111.3,-91.2,-1.8,-76.8,-390.9,-129.0,-881.7,0,0,2058,0,0,0,
1.1467,122.4,-84.9,6.3,-72.6,-416.1,-100.8,-872.4,0,0,2064,0,1,0,
1.1500,127.5,-79.2,9.6,-67.2,-420.3,-103.2,-870.9,0,0,2070,0,2,0,
1.1533,124.2,-86.7,11.1,-66.3,-410.1,-110.4,-875.4,0,0,2076,0,3,0,
1.1567,120.6,-79.8,7.5,-68.4,-409.8,-107.4,-879.9,0,0,2082,0,4,0,
1.1600,122.1,-75.0,7.8,-69.0,-408.3,-106.8,-876.9,0,0,2088,0,5,0,
1.1633,122.1,-83.7,2.4,-72.6,-410.4,-113.4,-875.7,0,0,2094,0,6,0,
1.1667,119.7,-92.4,3.3,-69.9,-410.1,-112.2,-877.2,0,0,2100,0,7,0,
1.1700,124.5,-84.3,0.0,-70.2,-408.9,-116.1,-872.1,0,0,2106,0,8,0,
1.1733,129.0,-70.2,6.3,-70.2,-409.8,-112.5,-873.3,0,0,2112,0,9,0,
1.1767,126.6,-79.2,8.1,-69.0,-410.4,-115.2,-870.3,0,0,2118,0,10,0,
1.1800,122.4,-78.6,6.6,-69.0,-412.8,-111.9,-873.0,0,0,2124,0,11,0,
1.1833,126.0,-86.4,4.2,-69.9,-409.2,-112.8,-869.7,0,0,2130,0,12,0,
1.1867,128.4,-80.1,3.6,-68.4,-410.4,-113.4,-870.6,0,0,2136,0,13,0,
1.1900,124.8,-91.2,0.0,-72.9,-410.7,-114.6,-879.3,0,0,2142,0,14,0,
1.1933,128.1,-98.7,2.4,-70.5,-408.0,-110.4,-872.7,0,0,2148,0,15,0,
1.1967,124.8,-89.1,1.8,-74.1,-412.8,-117.0,-872.1,0,0,2154,0,16,0,
1.2000,122.4,-90.9,0.0,-72.6,-413.1,-115.5,-873.3,0,0,2160,0,17,0,
1.2033,130.8,-87.6,5.1,-72.6,-410.7,-109.2,-870.0,0,0,2166,0,18,0,
1.2067,119.4,-87.6,0.9,-73.8,-414.0,-115.2,-877.8,0,0,2172,0,19,0,
1.2100,120.0,-84.6,-2.1,-73.5,-409.5,-110.1,-875.7,0,0,2178,0,20,0,
1.2133,129.9,-79.2,-0.3,-71.1,-405.0,-108.6,-870.3,0,0,2184,0,21,0,
1.2167,120.3,-80.1,0.0,-73.8,-411.9,-113.1,-878.7,0,0,2190,0,22,0,
1.2200,108.9,-97.5,-13.8,-80.7,-396.9,-133.2,-899.4,0,0,2196,0,23,0,
1.2233,113.7,-80.4,-5.4,-77.4,-401.7,-117.3,-889.2,0,0,2202,0,24,0,
1.2267,123.6,-67.5,2.1,-71.1,-418.8,-96.6,-867.0,0,0,2208,0,25,0,
1.2300,115.5,-84.6,-7.2,-79.2,-410.1,-113.4,-881.1,0,0,2214,0,26,0,
1.2333,116.4,-80.7,-2.7,-74.1,-408.3,-110.4,-882.3,0,0,2220,0,27,0,
1.2367,108.0,-88.5,-6.0,-78.3,-416.4,-121.5,-883.8,0,0,2226,0,28,0,
1.2400,105.3,-93.0,-8.1,-81.3,-417.0,-119.4,-881.4,0,0,2232,0,29,0,
1.2433,108.3,-86.4,-7.2,-84.6,-419.4,-120.6,-890.1,0,0,2238,0,30,0,
1.2467,111.6,-87.3,-3.0,-80.1,-413.4,-113.1,-882.3,0,0,2244,0,31,0,
1.2500,119.1,-86.4,6.0,-75.9,-412.5,-105.6,-865.5,0,0,2250,0,32,0,
1.2533,113.4,-70.2,5.7,-72.6,-410.1,-105.9,-876.0,0,0,2256,0,33,0,
1.2567,116.7,-67.5,3.3,-74.1,-411.9,-113.4,-876.6,0,0,2262,0,34,0,
1.2600,121.2,-71.7,3.0,-75.0,-411.9,-109.5,-872.1,0,0,2268,0,35,0,
1.2633,119.4,-67.8,3.3,-72.6,-411.0,-108.9,-866.4,0,0,2274,0,36,0,
1.2667,113.1,-72.3,1.5,-78.6,-413.7,-112.5,-873.6,0,0,2280,0,37,0,
1.2700,116.1,-65.4,3.9,-74.4,-414.0,-110.7,-883.8,0,0,2286,0,38,0,
1.2733,114.6,-69.0,2.4,-77.7,-415.2,-116.7,-894.3,0,0,2292,0,39,0,
1.2767,120.0,-61.5,8.4,-73.2,-413.4,-114.9,-879.6,0,0,2298,0,40,0,
1.2800,119.1,-71.7,8.4,-74.4,-411.9,-116.4,-870.6,0,0,2304,0,41,0,
1.2833,116.1,-75.9,8.1,-76.2,-414.9,-114.0,-875.1,0,0,2310,0,42,0,
1.2867,109.8,-80.1,4.2,-75.0,-417.3,-119.1,-876.0,0,0,2316,0,43,0,
1.2900,109.2,-72.3,3.0,-75.6,-418.5,-116.7,-874.8,0,0,2322,0,44,0,
1.2933,121.2,-64.5,9.0,-74.4,-413.4,-112.2,-873.3,0,0,2328,0,45,0,
1.2967,123.9,-57.3,12.3,-77.7,-415.2,-110.4,-868.8,0,0,2334,0,46,0,
1.3000,120.3,-52.8,11.7,-79.2,-417.6,-114.0,-876.3,0,0,2340,0,47,0,
1.3033,116.7,-61.2,15.0,-73.8,-417.0,-114.9,-875.4,0,0,2346,0,48,0,
1.3067,124.2,-60.9,12.6,-75.9,-420.3,-116.4,-879.9,0,0,2352,0,49,0,
1.3100,105.0,-70.8,-1.2,-83.7,-401.4,-132.9,-890.1,0,0,2358,0,50,0,
1.3133,119.4,-58.8,9.3,-76.5,-419.1,-107.7,-876.3,0,0,2364,0,51,0,
1.3167,122.7,-52.5,8.7,-74.4,-425.4,-106.2,-868.8,0,0,2370,0,52,0,
1.3200,118.5,-58.5,7.2,-76.2,-421.2,-115.5,-881.1,0,0,2376,0,53,0,
1.3233,124.2,-58.2,4.5,-75.0,-418.5,-111.0,-882.0,0,0,2382,0,54,0,
1.3267,123.0,-66.9,10.2,-74.4,-418.5,-111.0,-881.7,0,0,2388,0,55,0,
1.3300,123.0,-69.0,9.0,-78.0,-420.6,-115.2,-876.0,0,0,2394,0,56,0,
1.3333,128.7,-58.8,14.1,-72.6,-419.7,-111.0,-867.0,0,0,2400,0,57,0,
1.3367,126.0,-55.8,8.4,-77.4,-419.7,-117.6,-883.2,0,0,2406,0,58,0,
1.3400,122.4,-63.9,10.2,-75.0,-419.7,-114.0,-892.5,0,0,2412,0,59,0,
1.3433,128.1,-59.1,12.6,-72.9,-418.5,-112.2,-879.6,0,0,2418,0,60,0,
1.3467,135.6,-56.1,15.6,-73.8,-414.3,-105.6,-873.6,0,0,2424,0,61,0,
1.3500,128.1,-58.5,14.7,-73.2,-415.5,-109.2,-882.6,0,0,2430,0,62,0,
1.3533,132.0,-63.6,10.5,-75.9,-418.2,-109.5,-883.2,0,0,2436,0,63,0,
1.3567,129.6,-74.1,9.0,-77.4,-419.7,-108.9,-888.6,0,0,2442,0,64,0,
1.3600,128.7,-66.0,8.1,-78.3,-417.9,-111.9,-890.7,0,0,2448,0,65,0,
1.3633,135.3,-53.7,15.9,-72.9,-413.4,-106.8,-888.3,0,0,2454,0,66,0,
1.3667,127.8,-61.2,9.6,-78.6,-417.9,-110.1,-888.0,0,0,2460,0,67,0,
1.3700,128.4,-67.5,6.3,-80.1,-418.8,-109.5,-879.6,0,0,2466,0,68,0,
1.3733,122.4,-80.4,1.8,-86.1,-421.5,-116.1,-892.8,0,0,2472,0,69,0,
1.3767,120.6,-76.2,0.0,-81.3,-421.5,-120.9,-893.4,0,0,2478,0,70,0,
1.3800,122.7,-71.7,-1.5,-80.7,-424.8,-119.4,-896.1,0,0,2484,0,71,0,
1.3833,123.9,-77.7,3.6,-78.9,-409.5,-127.2,-894.0,0,0,2490,0,72,0,
1.3867,119.7,-88.8,-0.6,-81.9,-408.6,-128.7,-900.6,0,0,2496,0,73,0,
1.3900,140.7,-64.5,13.2,-71.7,-429.3,-99.3,-885.3,0,0,2502,0,74,0,
1.3933,129.3,-67.5,6.9,-79.8,-418.5,-117.9,-906.9,0,0,2508,0,75,0,
1.3967,132.6,-72.6,6.6,-74.4,-420.6,-112.5,-898.8,0,0,2514,0,76,0,
1.4000,123.6,-78.0,1.2,-78.0,-420.3,-121.5,-893.7,0,0,2520,0,77,0,
1.4033,124.5,-77.7,5.4,-78.3,-420.9,-117.9,-894.6,0,0,2526,0,78,0,
1.4067,125.1,-76.5,6.3,-76.5,-421.8,-118.8,-896.4,0,0,2532,0,79,0,
1.4100,129.0,-71.7,2.4,-75.9,-424.2,-118.2,-894.9,0,0,2538,0,80,0,
1.4133,122.7,-75.3,4.8,-76.2,-421.8,-113.4,-898.5,0,0,2544,0,81,0,
1.4167,125.1,-76.8,4.2,-80.7,-424.8,-119.7,-893.7,0,0,2550,0,82,0,
1.4200,121.8,-77.7,7.2,-79.8,-423.9,-118.5,-891.0,0,0,2556,0,83,0,
1.4233,133.5,-80.7,9.6,-78.9,-423.3,-120.0,-881.4,0,0,2562,0,84,0,
1.4267,128.1,-69.9,3.0,-83.4,-422.4,-116.1,-892.8,0,0,2568,0,85,0,
1.4300,122.7,-72.6,1.2,-84.6,-428.1,-126.0,-900.6,0,0,2574,0,86,0,
1.4333,120.6,-75.0,-1.5,-81.6,-424.2,-117.3,-890.7,0,0,2580,0,87,0,
1.4367,123.6,-75.0,1.8,-80.1,-424.2,-119.4,-889.2,0,0,2586,0,88,0,
1.4400,126.6,-72.9,6.6,-77.7,-420.6,-114.0,-889.5,0,0,2592,0,89,0,
1.4433,120.6,-83.4,3.0,-81.3,-425.1,-123.3,-890.7,0,0,2598,0,90,0,
1.4467,120.3,-82.5,6.0,-82.2,-424.2,-121.2,-887.1,0,0,2604,0,91,0,
1.4500,119.1,-81.6,2.4,-85.2,-425.1,-122.1,-879.3,0,0,2610,0,92,0,
1.4533,125.4,-72.6,5.4,-80.1,-420.3,-118.8,-876.0,0,0,2616,0,93,0,
1.4567,125.4,-71.7,8.4,-81.0,-423.9,-124.2,-877.5,0,0,2622,0,94,0,
1.4600,124.2,-74.7,12.0,-76.8,-424.2,-122.1,-885.0,0,0,2628,0,95,0,
1.4633,121.2,-75.0,10.5,-81.0,-424.5,-121.5,-885.3,0,0,2634,0,96,0,
1.4667,116.1,-78.6,6.6,-81.6,-420.3,-126.9,-878.7,0,0,2640,0,97,0,
1.4700,127.5,-72.3,12.0,-76.5,-419.1,-123.9,-867.3,0,0,2646,0,98,0,
1.4733,105.9,-90.3,0.9,-85.5,-402.3,-145.5,-886.8,0,0,2652,0,99,0,
1.4767,126.9,-75.3,12.3,-77.7,-424.5,-117.3,-873.6,0,0,2658,0,100,0,
1.4800,125.7,-72.9,13.5,-76.5,-425.1,-119.1,-869.1,0,0,2664,0,101,0,
1.4833,123.0,-72.3,9.9,-82.2,-419.7,-122.4,-877.8,0,0,2670,0,102,0,
1.4867,114.0,-77.1,4.8,-81.3,-421.2,-127.8,-888.3,0,0,2676,0,103,0,
1.4900,118.8,-67.2,7.8,-75.3,-418.2,-127.5,-883.2,0,0,2682,0,104,0,
1.4933,117.3,-70.5,8.7,-77.4,-420.0,-126.6,-883.8,0,0,2688,0,105,0,
1.4967,117.3,-74.1,2.4,-76.5,-415.8,-121.8,-873.0,0,0,2694,0,106,0,
1.5000,116.7,-70.5,8.1,-75.3,-414.3,-115.5,-878.4,0,0,2700,0,107,0,
1.5033,119.7,-67.8,11.1,-70.5,-412.2,-118.5,-875.4,0,0,2706,0,108,0,
1.5067,111.6,-81.6,-3.0,-78.0,-419.4,-127.5,-881.4,0,0,2712,0,109,0,
1.5100,114.6,-81.9,-3.0,-79.5,-420.6,-133.2,-871.2,0,0,2718,0,110,0,
1.5133,110.1,-84.0,-0.6,-77.1,-419.1,-130.5,-868.5,0,0,2724,0,111,0,
1.5167,116.7,-87.6,3.3,-75.9,-418.8,-127.2,-863.4,0,0,2730,0,112,0,
1.5200,109.8,-90.0,-2.4,-78.3,-421.8,-130.2,-880.5,0,0,2736,0,113,0,
1.5233,117.6,-77.4,1.8,-78.6,-420.3,-127.8,-879.6,0,0,2742,0,114,0,
1.5267,126.3,-72.3,10.5,-75.0,-417.3,-123.3,-870.3,0,0,2748,0,115,0,
1.5300,127.8,-73.8,9.9,-73.5,-418.2,-122.1,-858.6,0,0,2754,0,116,0,
1.5333,126.6,-77.4,10.5,-73.5,-418.5,-123.0,-860.1,0,0,2760,0,117,0,
1.5367,118.8,-76.2,6.3,-78.0,-420.3,-128.1,-867.9,0,0,2766,0,118,0,
1.5400,118.2,-73.5,3.3,-78.0,-420.6,-131.4,-868.5,0,0,2772,0,119,0,
1.5433,119.1,-77.1,7.5,-78.0,-418.5,-126.6,-872.4,0,0,2778,0,120,0,
1.5467,125.1,-79.5,6.6,-75.9,-416.4,-125.7,-868.8,0,0,2784,0,121,0,
1.5500,123.6,-81.3,8.1,-78.9,-415.2,-118.2,-861.9,0,0,2790,0,122,0,
1.5533,120.6,-81.3,7.2,-78.3,-415.2,-118.8,-876.0,0,0,2796,0,123,0,
1.5567,121.5,-99.9,5.1,-76.2,-416.1,-117.0,-870.0,0,0,2802,0,124,0,
1.5600,114.3,-86.1,5.4,-80.4,-402.3,-131.1,-877.8,0,0,2808,0,125,0,
1.5633,118.5,-70.8,6.9,-80.1,-401.7,-120.9,-890.4,0,0,2814,0,126,0,
1.5667,128.7,-71.7,15.0,-73.5,-424.5,-106.8,-888.3,0,0,2820,0,127,0,
1.5700,124.8,-81.3,6.0,-77.4,-408.6,-123.9,-874.5,0,0,2826,0,128,0,
1.5733,128.4,-75.6,8.1,-73.8,-408.9,-111.3,-855.0,0,0,2832,0,129,0,
1.5767,128.1,-79.8,8.7,-72.6,-410.1,-117.6,-860.1,0,0,2838,0,130,0,
1.5800,129.9,-76.5,11.7,-73.8,-411.0,-115.8,-858.9,0,0,2844,0,131,0,
1.5833,123.9,-87.6,9.9,-77.4,-411.9,-121.5,-870.3,0,0,2850,0,132,0,
1.5867,116.1,-90.6,7.8,-73.8,-414.3,-125.7,-873.0,0,0,2856,0,133,0,
1.5900,116.1,-89.1,7.5,-75.3,-412.5,-127.2,-872.7,0,0,2862,0,134,0,
1.5933,127.8,-77.1,14.4,-72.0,-409.2,-120.0,-868.5,0,0,2868,0,135,0,
1.5967,124.2,-84.9,11.4,-75.0,-412.8,-119.7,-871.2,0,0,2874,0,136,0,
1.6000,118.8,-88.2,2.4,-76.5,-411.9,-122.4,-875.1,0,0,2880,0,137,0,
1.6033,126.3,-83.7,8.4,-75.0,-412.8,-122.4,-874.2,0,0,2886,0,138,0,
1.6067,119.7,-82.5,5.1,-72.9,-409.2,-120.3,-867.0,0,0,2892,0,139,0,
1.6100,119.1,-84.3,3.6,-70.5,-407.4,-120.0,-865.5,0,0,2898,0,140,0,
1.6133,117.6,-77.4,1.8,-72.6,-408.3,-120.0,-866.1,0,0,2904,0,141,0,
1.6167,120.0,-88.8,-4.2,-75.3,-411.0,-120.6,-870.3,0,0,2910,0,142,0,
1.6200,119.1,-89.4,-0.6,-75.6,-411.9,-122.4,-879.9,0,0,2916,0,143,0,
1.6233,117.3,-81.6,2.4,-74.7,-410.7,-123.0,-877.8,0,0,2922,0,144,0,
1.6267,115.2,-77.7,2.7,-71.7,-412.5,-124.5,-873.0,0,0,2928,0,145,0,
1.6300,111.6,-81.3,-6.0,-75.6,-414.6,-124.5,-877.5,0,0,2934,0,146,0,
1.6333,106.5,-88.2,-4.2,-74.4,-414.6,-123.0,-876.0,0,0,2940,0,147,0,
1.6367,113.1,-85.5,3.6,-73.8,-414.0,-123.0,-870.3,0,0,2946,0,148,0,
1.6400,113.4,-82.5,-0.3,-75.0,-412.2,-122.4,-869.1,0,0,2952,0,149,0,
1.6433,114.3,-81.6,-0.9,-76.8,-413.4,-123.3,-874.8,0,0,2958,0,150,0,
1.6467,103.2,-101.1,-15.3,-82.5,-393.0,-138.0,-900.0,0,0,2964,0,151,0,
1.6500,117.0,-87.9,-4.5,-75.0,-413.4,-116.1,-873.0,0,0,2970,0,152,0,
1.6533,128.4,-75.0,3.0,-72.3,-419.7,-111.3,-863.4,0,0,2976,0,153,0,
1.6567,125.4,-74.4,1.5,-74.7,-411.0,-118.8,-868.2,0,0,2982,0,154,0,
1.6600,118.2,-72.9,-0.6,-75.9,-412.2,-119.4,-870.6,0,0,2988,0,155,0,
1.6633,124.2,-71.1,2.7,-74.4,-407.4,-114.0,-870.0,0,0,2994,0,156,0,
1.6667,120.0,-79.8,1.5,-75.3,-408.9,-111.6,-870.0,0,0,3000,0,157,0,
1.6700,126.6,-74.4,4.8,-72.3,-409.5,-110.4,-866.7,0,0,3006,0,158,0,
1.6733,129.6,-75.9,9.3,-70.8,-403.8,-115.5,-858.3,0,0,3012,0,159,0,
1.6767,126.0,-80.1,6.3,-69.0,-406.5,-116.4,-862.8,0,0,3018,0,160,0,
1.6800,128.1,-82.8,7.5,-68.4,-405.9,-111.6,-866.4,0,0,3024,0,161,0,
1.6833,132.9,-75.9,5.7,-69.6,-404.1,-112.5,-864.6,0,0,3030,0,162,0,
1.6867,129.9,-71.4,7.5,-69.9,-407.4,-114.0,-862.2,0,0,3036,0,163,0,
1.6900,126.3,-69.0,8.7,-68.1,-408.9,-117.9,-858.3,0,0,3042,0,164,0,
1.6933,128.1,-75.9,9.0,-69.3,-408.9,-117.9,-857.7,0,0,3048,0,165,0,
1.6967,125.7,-78.6,5.4,-69.3,-405.6,-114.9,-872.1,0,0,3054,0,166,0,
1.7000,125.4,-78.6,2.7,-71.1,-405.9,-118.2,-868.2,0,0,3060,0,167,0,
1.7033,122.1,-72.6,6.6,-70.2,-403.8,-111.9,-866.1,0,0,3066,0,168,0,
1.7067,131.4,-71.1,5.7,-68.7,-401.4,-103.2,-859.5,0,0,3072,0,169,0,
1.7100,125.4,-67.2,10.2,-65.7,-400.2,-108.0,-860.4,0,0,3078,0,170,0,
1.7133,127.8,-69.9,10.2,-66.3,-399.3,-108.0,-863.1,0,0,3084,0,171,0,
1.7167,120.6,-75.6,8.4,-68.4,-406.8,-117.0,-875.7,0,0,3090,0,172,0,
1.7200,120.0,-80.1,2.7,-72.3,-407.4,-119.7,-885.9,0,0,3096,0,173,0,
1.7233,118.2,-82.8,5.1,-69.6,-405.9,-119.1,-886.2,0,0,3102,0,174,0,
1.7267,113.4,-87.3,-3.0,-73.8,-405.6,-119.4,-881.7,0,0,3108,0,175,0,
1.7300,117.6,-85.5,-0.9,-73.8,-406.5,-124.2,-875.1,0,0,3114,0,176,0,
1.7333,109.2,-91.2,-5.1,-77.1,-384.9,-135.6,-879.6,0,0,3120,0,177,0,
1.7367,127.8,-70.5,2.7,-70.2,-412.5,-103.8,-863.1,0,0,3126,0,178,0,
1.7400,129.6,-72.0,5.1,-67.5,-410.1,-108.3,-870.9,0,0,3132,0,179,0,
1.7433,131.1,-82.8,10.2,-64.5,-404.4,-107.7,-873.6,0,0,3138,0,180,0,
1.7467,126.9,-84.0,9.0,-64.2,-405.0,-109.8,-867.3,0,0,3144,0,181,0,
1.7500,131.1,-66.3,12.9,-61.8,-406.5,-111.9,-857.7,0,0,3150,0,182,0,
1.7533,129.9,-69.6,9.0,-64.8,-405.9,-117.0,-863.7,0,0,3156,0,183,0,
1.7567,131.7,-67.2,12.3,-62.7,-404.1,-112.2,-865.8,0,0,3162,0,184,0,
1.7600,129.0,-69.9,4.8,-69.0,-406.2,-111.0,-867.6,0,0,3168,0,185,0,
1.7633,131.4,-74.7,8.7,-67.8,-406.2,-116.4,-868.5,0,0,3174,0,186,0,
1.7667,131.7,-75.3,5.7,-66.3,-403.2,-111.9,-869.7,0,0,3180,0,187,0,
1.7700,127.2,-71.1,8.1,-63.6,-401.1,-111.6,-877.5,0,0,3186,0,188,0,
1.7733,133.2,-67.2,9.9,-62.7,-399.9,-108.6,-873.3,0,0,3192,0,189,0,
1.7767,132.6,-67.8,11.4,-66.6,-401.4,-112.5,-870.0,0,0,3198,0,190,0,
1.7800,128.1,-65.1,18.0,-65.7,-400.2,-108.3,-878.1,0,0,3204,0,191,0,
1.7833,130.8,-66.3,21.3,-64.8,-397.2,-106.2,-873.3,0,0,3210,0,192,0,
1.7867,134.7,-66.6,21.3,-66.3,-397.8,-105.6,-859.5,0,0,3216,0,193,0,
1.7900,130.8,-70.2,14.7,-67.8,-400.5,-111.9,-862.5,0,0,3222,0,194,0,
1.7933,131.7,-68.7,15.3,-64.5,-396.9,-108.0,-858.6,0,0,3228,0,195,0,
1.7967,133.5,-64.8,21.0,-65.1,-399.0,-108.3,-851.4,0,0,3234,0,196,0,
1.8000,132.3,-66.6,12.9,-64.8,-397.5,-107.1,-851.4,0,0,3240,0,197,0,
1.8033,130.2,-65.4,18.3,-63.0,-398.1,-109.5,-855.3,0,0,3246,0,198,0,
1.8067,127.2,-66.9,14.7,-65.1,-400.5,-110.4,-853.5,0,0,3252,0,199,0,
1.8100,122.4,-72.9,11.1,-70.8,-388.2,-127.5,-865.2,0,0,3258,0,200,0,
1.8133,125.7,-69.9,12.9,-68.1,-390.6,-113.1,-864.0,0,0,3264,0,201,0,
1.8167,142.5,-50.4,21.6,-60.3,-410.7,-91.5,-855.0,0,0,3270,0,202,0,
1.8200,132.3,-53.4,11.1,-69.6,-396.3,-97.8,-855.3,0,0,3276,0,203,0,
1.8233,131.7,-54.6,13.2,-69.9,-403.2,-100.2,-849.6,0,0,3282,0,204,0,
1.8267,132.6,-61.2,13.2,-66.3,-398.1,-98.4,-851.4,0,0,3288,0,205,0,
1.8300,130.5,-59.4,10.5,-67.8,-398.1,-102.3,-857.1,0,0,3294,0,206,0,
1.8333,138.6,-63.9,17.7,-66.3,-396.9,-99.9,-855.0,0,0,3300,0,207,0,
1.8367,132.6,-61.2,22.2,-63.6,-397.2,-105.6,-859.2,0,0,3306,0,208,0,
1.8400,130.8,-58.5,21.9,-69.3,-398.1,-104.4,-870.6,0,0,3312,0,209,0,
1.8433,132.6,-56.7,16.8,-66.0,-400.8,-110.7,-864.9,0,0,3318,0,210,0,
1.8467,126.0,-57.3,15.9,-67.2,-396.9,-109.2,-862.5,0,0,3324,0,211,0,
1.8500,127.5,-61.2,12.3,-65.7,-398.4,-108.6,-865.5,0,0,3330,0,212,0,
1.8533,134.1,-61.2,15.6,-67.2,-394.8,-104.4,-860.7,0,0,3336,0,213,0,
1.8567,142.8,-56.7,20.1,-66.6,-391.8,-101.4,-854.4,0,0,3342,0,214,0,
1.8600,138.9,-48.9,18.0,-64.8,-392.4,-99.9,-858.0,0,0,3348,0,215,0,
1.8633,144.6,-45.9,13.2,-69.3,-393.9,-102.6,-858.0,0,0,3354,0,216,0,
1.8667,143.4,-45.0,16.2,-71.1,-393.9,-100.2,-847.8,0,0,3360,0,217,0,
1.8700,144.6,-59.4,12.0,-71.4,-396.6,-99.6,-849.3,0,0,3366,0,218,0,
1.8733,135.3,-60.3,12.9,-73.2,-394.8,-101.1,-868.8,0,0,3372,0,219,0,
1.8767,144.3,-51.0,16.8,-68.4,-392.7,-102.0,-859.2,0,0,3378,0,220,0,
1.8800,149.1,-43.5,19.8,-70.5,-393.3,-97.2,-854.7,0,0,3384,0,221,0,
1.8833,149.4,-48.3,20.7,-66.0,-388.2,-93.3,-853.8,0,0,3390,0,222,0,
1.8867,150.9,-49.2,16.8,-67.5,-389.1,-97.2,-856.5,0,0,3396,0,223,0,
1.8900,148.2,-51.3,17.7,-67.2,-390.9,-101.1,-852.3,0,0,3402,0,224,0,
1.8933,149.1,-53.7,20.4,-61.8,-389.4,-97.8,-845.7,0,0,3408,0,225,0,
1.8967,147.3,-51.6,22.2,-65.7,-393.9,-98.4,-850.2,0,0,3414,0,226,0,
1.9000,149.1,-51.0,21.9,-64.8,-389.7,-99.6,-852.0,0,0,3420,0,227,0,
1.9033,145.5,-48.0,21.9,-67.5,-392.1,-100.2,-859.5,0,0,3426,0,228,0,
1.9067,145.5,-64.8,18.9,-64.8,-394.8,-102.3,-858.6,0,0,3432,0,229,0,
1.9100,144.6,-55.2,23.1,-66.0,-390.6,-101.7,-858.6,0,0,3438,0,230,0,
1.9133,147.0,-57.6,18.0,-65.4,-390.3,-101.7,-855.6,0,0,3444,0,231,0,
1.9167,140.1,-54.0,12.0,-68.1,-395.4,-104.4,-865.5,0,0,3450,0,232,0,
1.9200,144.0,-47.4,18.0,-63.9,-386.7,-106.5,-850.2,0,0,3456,0,233,0,
1.9233,132.3,-55.2,12.9,-69.3,-377.1,-117.9,-866.4,0,0,3462,0,234,0,
1.9267,148.5,-52.2,23.1,-56.7,-409.2,-90.0,-861.9,0,0,3468,0,235,0,
1.9300,137.1,-60.0,15.6,-64.8,-398.1,-104.4,-867.6,0,0,3474,0,236,0,
1.9333,146.4,-55.2,19.2,-63.0,-397.5,-99.0,-867.0,0,0,3480,0,237,0,
1.9367,144.9,-60.9,13.8,-68.1,-395.7,-103.8,-880.2,0,0,3486,0,238,0,
1.9400,143.7,-63.9,14.4,-65.1,-399.0,-106.2,-871.5,0,0,3492,0,239,0,
1.9433,138.9,-60.9,10.2,-67.5,-398.4,-109.2,-877.2,0,0,3498,0,240,0,
1.9467,140.7,-55.2,12.6,-67.5,-396.0,-110.1,-880.2,0,0,3504,0,241,0,
1.9500,140.4,-57.9,12.9,-62.4,-396.3,-110.7,-879.9,0,0,3510,0,242,0,
1.9533,137.7,-62.1,11.4,-67.2,-397.2,-113.1,-880.2,0,0,3516,0,243,0,
1.9567,138.3,-63.6,16.2,-63.9,-398.7,-112.2,-874.5,0,0,3522,0,244,0,
1.9600,138.9,-61.2,15.3,-65.4,-397.8,-110.7,-871.5,0,0,3528,0,245,0,
1.9633,141.0,-59.1,18.9,-63.3,-395.7,-106.5,-869.4,0,0,3534,0,246,0,
1.9667,143.4,-51.0,19.2,-63.9,-397.5,-103.8,-876.0,0,0,3540,0,247,0,
1.9700,141.9,-58.2,18.3,-65.4,-397.2,-105.6,-877.8,0,0,3546,0,248,0,
1.9733,137.7,-54.6,14.7,-66.0,-396.3,-104.7,-871.2,0,0,3552,0,249,0,
1.9767,149.1,-48.9,21.0,-61.8,-396.3,-102.9,-865.2,0,0,3558,0,250,0,
1.9800,140.4,-60.9,13.2,-69.0,-397.8,-106.5,-865.8,0,0,3564,0,251,0,
1.9833,147.0,-58.8,14.4,-66.0,-394.5,-107.7,-870.6,0,0,3570,0,252,0,
1.9867,140.7,-58.5,16.2,-66.0,-397.5,-104.7,-877.5,0,0,3576,0,253,0,
1.9900,146.1,-50.7,16.5,-65.7,-397.2,-103.2,-874.5,0,0,3582,0,254,0,
1.9933,138.6,-61.2,15.3,-67.5,-398.4,-102.6,-878.1,0,0,3588,0,255,0,
1.9967,139.5,-57.6,18.3,-65.4,-396.0,-100.8,-879.0,0,0,3594,0,0,0,
2.0000,140.1,-56.4,17.4,-60.9,-392.1,-100.5,-873.9,0,0,3600,0,1,0,
2.0033,135.6,-59.1,10.8,-63.6,-396.6,-109.8,-871.5,0,0,3606,0,2,0,
2.0067,135.9,-58.8,14.1,-61.5,-398.1,-108.0,-870.9,0,0,3612,0,3,0,
2.0100,137.4,-54.6,14.7,-62.4,-394.8,-103.8,-868.5,0,0,3618,0,4,0,
2.0133,132.0,-64.5,13.5,-63.0,-396.3,-105.6,-876.3,0,0,3624,0,5,0,
2.0167,137.1,-62.4,17.1,-64.8,-399.6,-112.2,-878.1,0,0,3630,0,6,0,
2.0200,136.8,-46.8,15.6,-66.3,-400.5,-106.8,-873.0,0,0,3636,0,7,0,
2.0233,146.7,-48.9,25.2,-59.1,-396.6,-100.2,-870.3,0,0,3642,0,8,0,
2.0267,141.3,-58.8,17.7,-63.3,-398.1,-103.5,-872.4,0,0,3648,0,9,0,
2.0300,141.3,-54.3,14.1,-63.9,-398.7,-102.3,-874.2,0,0,3654,0,10,0,
2.0333,144.9,-50.1,10.8,-64.8,-393.9,-98.4,-874.2,0,0,3660,0,11,0,
2.0367,149.4,-51.0,16.2,-65.4,-396.6,-100.2,-865.8,0,0,3666,0,12,0,
2.0400,153.3,-39.6,18.9,-61.5,-396.0,-98.7,-859.5,0,0,3672,0,13,0,
2.0433,138.6,-57.9,10.8,-68.4,-381.3,-119.4,-882.9,0,0,3678,0,14,0,
2.0467,140.4,-57.0,13.2,-67.8,-394.5,-105.6,-888.6,0,0,3684,0,15,0,
2.0500,156.6,-45.6,23.1,-58.5,-407.4,-86.4,-867.6,0,0,3690,0,16,0,
2.0533,143.7,-56.1,15.6,-61.5,-398.1,-99.9,-872.7,0,0,3696,0,17,0,
2.0567,148.2,-50.1,17.4,-61.5,-396.3,-95.4,-868.2,0,0,3702,0,18,0,
2.0600,149.7,-48.6,17.7,-61.2,-395.1,-95.1,-876.0,0,0,3708,0,19,0,
2.0633,152.1,-45.6,19.5,-59.4,-395.4,-93.9,-885.0,0,0,3714,0,20,0,
2.0667,154.5,-49.8,19.2,-59.4,-394.5,-94.5,-884.1,0,0,3720,0,21,0,
2.0700,152.1,-50.1,20.1,-58.5,-391.8,-94.2,-868.8,0,0,3726,0,22,0,
2.0733,151.8,-55.5,24.3,-57.6,-394.8,-93.9,-867.0,0,0,3732,0,23,0,
2.0767,145.5,-51.3,21.6,-59.1,-396.9,-98.7,-870.9,0,0,3738,0,24,0,
2.0800,148.2,-51.9,14.7,-62.4,-397.8,-100.2,-871.8,0,0,3744,0,25,0,
2.0833,143.7,-51.0,12.0,-66.6,-402.6,-100.5,-874.2,0,0,3750,0,26,0,
2.0867,142.2,-48.0,13.5,-65.1,-396.3,-99.9,-876.9,0,0,3756,0,27,0,
2.0900,144.6,-43.2,13.2,-62.4,-395.1,-96.0,-876.0,0,0,3762,0,28,0,
2.0933,150.0,-42.3,19.2,-61.2,-394.5,-99.6,-882.9,0,0,3768,0,29,0,
2.0967,149.1,-46.2,18.3,-60.3,-394.5,-98.4,-880.2,0,0,3774,0,30,0,
2.1000,146.4,-52.2,13.8,-59.7,-395.7,-98.7,-874.5,0,0,3780,0,31,0,
2.1033,148.2,-53.1,14.1,-63.6,-396.3,-95.4,-870.6,0,0,3786,0,32,0,
2.1067,142.2,-51.6,9.0,-68.1,-396.0,-100.2,-869.1,0,0,3792,0,33,0,
2.1100,145.2,-48.3,12.9,-63.9,-396.3,-100.8,-875.1,0,0,3798,0,34,0,
2.1133,143.4,-55.8,12.0,-63.6,-396.0,-99.9,-877.5,0,0,3804,0,35,0,
2.1167,144.0,-43.8,18.3,-61.2,-396.0,-97.8,-872.1,0,0,3810,0,36,0,
2.1200,143.7,-46.5,17.7,-60.6,-395.4,-99.0,-874.5,0,0,3816,0,37,0,
2.1233,149.1,-46.8,23.4,-56.1,-393.9,-96.9,-869.4,0,0,3822,0,38,0,
2.1267,141.6,-49.2,22.2,-57.9,-394.8,-102.0,-876.9,0,0,3828,0,39,0,
2.1300,139.8,-49.5,18.9,-59.4,-396.3,-104.4,-877.2,0,0,3834,0,40,0,
2.1333,140.4,-48.0,17.7,-59.1,-395.1,-105.3,-871.8,0,0,3840,0,41,0,
2.1367,135.3,-54.9,15.9,-62.4,-395.4,-104.1,-881.4,0,0,3846,0,42,0,
2.1400,137.7,-48.6,15.6,-63.3,-397.5,-97.5,-885.3,0,0,3852,0,43,0,
2.1433,135.3,-53.7,11.7,-61.8,-392.1,-97.8,-880.8,0,0,3858,0,44,0,
2.1467,140.7,-51.3,16.8,-62.4,-395.7,-103.5,-876.3,0,0,3864,0,45,0,
2.1500,122.7,-52.5,4.8,-69.3,-379.8,-129.6,-899.1,0,0,3870,0,46,0,
2.1533,140.1,-49.8,12.6,-64.5,-407.4,-98.1,-890.1,0,0,3876,0,47,0,
2.1567,139.5,-60.0,12.9,-62.7,-405.9,-102.9,-888.3,0,0,3882,0,48,0,
2.1600,137.1,-58.2,11.1,-64.8,-402.6,-110.4,-885.6,0,0,3888,0,49,0,
2.1633,144.3,-55.2,19.8,-62.7,-394.5,-104.4,-880.5,0,0,3894,0,50,0,
2.1667,139.8,-50.7,16.2,-65.1,-397.8,-103.8,-882.9,0,0,3900,0,51,0,
2.1700,141.3,-45.6,12.6,-63.9,-399.0,-107.1,-881.4,0,0,3906,0,52,0,
2.1733,140.1,-59.4,10.5,-63.9,-402.6,-106.5,-884.1,0,0,3912,0,53,0,
2.1767,139.2,-58.2,9.9,-62.1,-398.7,-107.1,-892.8,0,0,3918,0,54,0,
2.1800,134.7,-56.4,12.3,-62.1,-399.9,-107.4,-896.1,0,0,3924,0,55,0,
2.1833,139.5,-52.5,6.3,-62.7,-401.1,-105.3,-900.9,0,0,3930,0,56,0,
2.1867,137.4,-56.7,3.9,-63.3,-402.3,-110.7,-903.9,0,0,3936,0,57,0,
2.1900,135.0,-52.2,4.8,-62.4,-398.7,-110.1,-895.2,0,0,3942,0,58,0,
2.1933,131.7,-48.3,6.0,-63.0,-399.3,-105.9,-905.1,0,0,3948,0,59,0,
2.1967,131.1,-50.1,3.9,-66.0,-405.0,-110.1,-910.8,0,0,3954,0,60,0,
2.2000,135.3,-54.6,6.6,-65.7,-400.5,-106.8,-897.6,0,0,3960,0,61,0,
2.2033,134.4,-61.5,6.0,-65.1,-397.8,-107.7,-897.6,0,0,3966,0,62,0,
2.2067,132.9,-61.2,5.1,-61.5,-399.6,-106.5,-903.0,0,0,3972,0,63,0,
2.2100,136.2,-55.8,7.2,-59.4,-398.1,-107.4,-903.3,0,0,3978,0,64,0,
2.2133,133.8,-56.4,9.9,-59.7,-401.4,-107.1,-909.3,0,0,3984,0,65,0,
2.2167,135.9,-57.3,5.4,-64.8,-402.3,-109.5,-895.5,0,0,3990,0,66,0,
2.2200,137.7,-52.2,9.9,-59.4,-399.0,-108.6,-893.7,0,0,3996,0,67,0,
2.2233,135.6,-60.3,12.3,-54.0,-397.8,-106.5,-891.0,0,0,4002,0,68,0,
2.2267,137.1,-56.4,15.0,-55.2,-402.0,-106.5,-893.1,0,0,4008,0,69,0,
2.2300,135.3,-55.8,9.0,-59.7,-400.5,-105.3,-897.3,0,0,4014,0,70,0,
2.2333,142.5,-48.9,16.2,-54.6,-396.0,-98.4,-899.1,0,0,4020,0,71,0,
2.2367,134.7,-56.4,7.2,-59.4,-401.1,-107.4,-906.3,0,0,4026,0,72,0,
2.2400,134.4,-61.2,8.4,-59.1,-400.2,-105.9,-901.8,0,0,4032,0,73,0,
2.2433,141.0,-50.7,10.2,-60.6,-401.1,-106.5,-903.3,0,0,4038,0,74,0,
2.2467,140.7,-49.8,7.2,-62.1,-400.2,-102.0,-901.8,0,0,4044,0,75,0,
2.2500,141.6,-55.2,6.0,-62.1,-398.1,-104.4,-899.1,0,0,4050,0,76,0,
2.2533,135.0,-67.2,8.7,-60.9,-401.4,-100.8,-903.6,0,0,4056,0,77,0,
2.2567,131.7,-62.4,7.2,-67.5,-403.8,-105.6,-909.9,0,0,4062,0,78,0,
2.2600,131.4,-57.3,8.1,-63.9,-404.1,-105.6,-911.4,0,0,4068,0,79,0,
2.2633,127.2,-56.7,2.7,-66.6,-404.7,-108.0,-927.6,0,0,4074,0,80,0,
2.2667,136.5,-49.5,7.8,-62.7,-397.5,-103.5,-912.0,0,0,4080,0,81,0,
2.2700,140.1,-54.0,4.2,-67.8,-401.7,-102.9,-899.7,0,0,4086,0,82,0,
2.2733,135.6,-47.1,6.3,-64.8,-400.5,-99.3,-895.8,0,0,4092,0,83,0,
2.2767,131.1,-53.1,6.9,-63.0,-401.4,-104.1,-900.6,0,0,4098,0,84,0,
2.2800,136.8,-50.4,13.5,-57.6,-398.4,-102.9,-894.3,0,0,4104,0,85,0,
2.2833,134.1,-53.4,8.1,-60.6,-403.5,-105.0,-895.8,0,0,4110,0,86,0,
2.2867,132.3,-52.2,6.3,-60.9,-401.4,-108.0,-906.6,0,0,4116,0,87,0,
2.2900,127.8,-48.6,3.9,-62.4,-408.3,-109.8,-905.1,0,0,4122,0,88,0,
2.2933,124.5,-57.9,1.2,-62.7,-405.0,-115.8,-911.4,0,0,4128,0,89,0,
2.2967,120.3,-69.0,-4.5,-66.6,-397.5,-123.0,-926.7,0,0,4134,0,90,0,
2.3000,117.0,-73.2,-6.9,-70.8,-387.9,-125.7,-927.6,0,0,4140,0,91,0,
2.3033,131.7,-53.7,6.3,-61.2,-419.1,-101.4,-914.1,0,0,4146,0,92,0,
2.3067,128.1,-67.2,2.4,-63.9,-408.6,-108.0,-923.1,0,0,4152,0,93,0,
2.3100,128.4,-65.1,7.5,-64.2,-406.5,-111.3,-923.1,0,0,4158,0,94,0,
2.3133,124.5,-66.9,-2.7,-69.3,-408.6,-111.0,-923.4,0,0,4164,0,95,0,
2.3167,120.9,-64.2,-3.0,-71.4,-408.9,-112.2,-924.3,0,0,4170,0,96,0,
2.3200,123.3,-68.4,-5.4,-70.5,-406.2,-111.9,-925.8,0,0,4176,0,97,0,
2.3233,122.7,-63.6,0.6,-68.1,-408.3,-115.8,-927.6,0,0,4182,0,98,0,
2.3267,126.9,-59.1,-0.6,-66.6,-404.7,-111.9,-929.1,0,0,4188,0,99,0,
2.3300,125.7,-66.3,-3.3,-65.4,-405.0,-114.0,-928.8,0,0,4194,0,100,0,
2.3333,126.6,-61.2,0.3,-63.9,-404.1,-107.7,-911.4,0,0,4200,0,101,0,
2.3367,124.8,-61.5,-3.0,-66.3,-404.1,-111.0,-919.8,0,0,4206,0,102,0,
2.3400,130.2,-65.4,1.8,-63.3,-400.2,-102.6,-915.3,0,0,4212,0,103,0,
2.3433,127.2,-53.1,3.9,-59.1,-397.8,-104.7,-917.7,0,0,4218,0,104,0,
2.3467,131.7,-55.8,6.3,-60.0,-399.3,-101.1,-916.2,0,0,4224,0,105,0,
2.3500,133.2,-58.5,0.0,-66.3,-402.9,-103.2,-913.2,0,0,4230,0,106,0,
2.3533,127.8,-54.9,2.1,-65.7,-403.2,-106.5,-923.1,0,0,4236,0,107,0,
2.3567,123.6,-56.4,0.9,-68.4,-402.9,-108.3,-925.5,0,0,4242,0,108,0,
2.3600,126.6,-58.5,0.6,-66.6,-404.4,-104.4,-913.2,0,0,4248,0,109,0,
2.3633,126.6,-63.0,0.9,-66.6,-405.3,-105.6,-920.1,0,0,4254,0,110,0,
2.3667,130.5,-63.3,2.4,-66.9,-401.1,-101.4,-916.8,0,0,4260,0,111,0,
2.3700,126.6,-51.3,0.3,-67.2,-404.4,-97.5,-911.7,0,0,4266,0,112,0,
2.3733,127.8,-52.2,0.3,-69.0,-403.2,-102.3,-909.9,0,0,4272,0,113,0,
2.3767,125.1,-64.5,0.0,-70.2,-407.4,-107.1,-915.6,0,0,4278,0,114,0,
2.3800,129.0,-58.2,-0.3,-70.8,-405.0,-105.0,-912.3,0,0,4284,0,115,0,
2.3833,123.9,-65.7,-3.6,-72.3,-409.8,-108.9,-924.6,0,0,4290,0,116,0,
2.3867,129.0,-57.9,-4.2,-72.6,-406.5,-110.7,-931.5,0,0,4296,0,117,0,
2.3900,128.7,-51.0,1.5,-69.9,-411.0,-102.6,-915.6,0,0,4302,0,118,0,
2.3933,132.0,-56.1,-2.7,-72.0,-410.7,-107.1,-913.8,0,0,4308,0,119,0,
2.3967,128.1,-66.3,-3.0,-70.2,-409.2,-107.7,-913.2,0,0,4314,0,120,0,
2.4000,132.6,-57.9,-0.3,-67.8,-403.2,-107.1,-914.4,0,0,4320,0,121,0,
2.4033,135.6,-63.0,-0.6,-69.6,-402.3,-108.0,-921.9,0,0,4326,0,122,0,
2.4067,120.3,-72.6,-11.1,-78.6,-390.0,-126.9,-940.8,0,0,4332,0,123,0,
2.4100,147.0,-48.6,6.6,-62.4,-416.1,-88.8,-904.5,0,0,4338,0,124,0,
2.4133,134.1,-59.7,-0.6,-69.6,-410.4,-104.4,-915.3,0,0,4344,0,125,0,
2.4167,141.9,-50.4,3.3,-63.6,-406.8,-96.9,-909.9,0,0,4350,0,126,0,
2.4200,135.0,-60.3,0.0,-65.4,-402.0,-102.3,-917.4,0,0,4356,0,127,0,
2.4233,127.8,-66.9,-7.5,-69.3,-405.3,-105.3,-933.3,0,0,4362,0,128,0,
2.4267,138.6,-54.3,3.3,-63.6,-402.3,-105.9,-915.6,0,0,4368,0,129,0,
2.4300,131.4,-56.1,2.1,-65.4,-407.4,-105.3,-907.8,0,0,4374,0,130,0,
2.4333,133.5,-57.9,1.8,-65.4,-400.8,-100.8,-904.8,0,0,4380,0,131,0,
2.4367,129.3,-59.1,3.6,-66.9,-402.0,-102.9,-916.8,0,0,4386,0,132,0,
2.4400,129.3,-64.5,3.6,-68.1,-405.6,-107.4,-914.4,0,0,4392,0,133,0,
2.4433,128.1,-57.9,3.9,-67.5,-404.4,-107.4,-911.1,0,0,4398,0,134,0,
2.4467,129.3,-47.4,5.4,-62.4,-403.8,-104.4,-904.5,0,0,4404,0,135,0,
2.4500,131.1,-61.2,0.9,-67.8,-401.7,-103.5,-901.5,0,0,4410,0,136,0,
2.4533,130.2,-53.7,5.7,-61.2,-400.8,-102.9,-896.4,0,0,4416,0,137,0,
2.4567,124.8,-61.2,1.5,-67.5,-406.2,-107.4,-898.2,0,0,4422,0,138,0,
2.4600,128.1,-58.8,3.0,-63.0,-405.9,-108.0,-895.8,0,0,4428,0,139,0,
2.4633,125.7,-60.9,2.7,-66.6,-407.1,-107.7,-897.3,0,0,4434,0,140,0,
2.4667,122.7,-62.1,10.2,-67.2,-406.2,-113.1,-898.2,0,0,4440,0,141,0,
2.4700,124.5,-63.0,9.3,-66.9,-406.8,-106.8,-899.4,0,0,4446,0,142,0,
2.4733,125.7,-66.6,4.5,-69.0,-408.3,-113.4,-903.0,0,0,4452,0,143,0,
2.4767,125.4,-65.7,6.9,-67.8,-407.7,-113.1,-904.5,0,0,4458,0,144,0,
2.4800,118.5,-68.1,3.0,-67.2,-405.6,-109.8,-903.0,0,0,4464,0,145,0,
2.4833,120.3,-63.6,5.4,-63.6,-405.9,-109.2,-894.3,0,0,4470,0,146,0,
2.4867,119.7,-71.1,2.7,-65.7,-410.1,-115.5,-908.1,0,0,4476,0,147,0,
2.4900,121.8,-68.1,0.9,-66.6,-409.5,-117.3,-918.9,0,0,4482,0,148,0,
2.4933,112.8,-77.7,0.6,-70.8,-411.3,-121.8,-919.2,0,0,4488,0,149,0,
2.4967,113.1,-84.6,-2.7,-76.2,-412.5,-123.0,-913.5,0,0,4494,0,150,0,
2.5000,121.5,-66.9,3.9,-72.9,-411.3,-122.7,-895.8,0,0,4500,0,151,0,
2.5033,117.9,-70.2,-1.5,-70.8,-411.9,-121.2,-893.7,0,0,4506,0,152,0,
2.5067,118.8,-62.4,1.5,-69.0,-410.4,-118.2,-893.4,0,0,4512,0,153,0,
2.5100,116.1,-73.2,2.7,-69.3,-408.3,-119.7,-894.3,0,0,4518,0,154,0,
2.5133,121.8,-61.2,6.3,-65.4,-407.4,-113.7,-893.4,0,0,4524,0,155,0,
2.5167,122.4,-73.8,5.7,-64.8,-406.5,-117.9,-897.9,0,0,4530,0,156,0,
2.5200,118.5,-75.6,4.5,-65.4,-403.5,-118.5,-899.4,0,0,4536,0,157,0,
2.5233,122.7,-71.7,3.0,-68.4,-405.3,-116.1,-897.3,0,0,4542,0,158,0,
2.5267,105.9,-82.2,-2.1,-75.3,-389.1,-136.8,-915.9,0,0,4548,0,159,0,
2.5300,124.8,-78.9,0.0,-66.0,-409.5,-108.6,-896.7,0,0,4554,0,160,0,
2.5333,129.0,-69.3,4.2,-67.5,-413.1,-102.0,-902.4,0,0,4560,0,161,0,
2.5367,120.0,-71.7,3.3,-70.8,-408.0,-114.3,-913.2,0,0,4566,0,162,0,
2.5400,124.2,-78.6,4.2,-68.1,-404.4,-113.4,-900.6,0,0,4572,0,163,0,
2.5433,122.4,-77.1,2.7,-71.7,-407.4,-117.0,-902.4,0,0,4578,0,164,0,
2.5467,122.7,-75.9,0.6,-71.4,-405.0,-118.2,-901.2,0,0,4584,0,165,0,
2.5500,123.9,-73.5,-2.1,-70.2,-403.2,-120.0,-904.8,0,0,4590,0,166,0,
2.5533,124.8,-78.9,-3.3,-73.5,-402.9,-121.5,-900.3,0,0,4596,0,167,0,
2.5567,125.4,-71.1,-2.1,-75.0,-404.7,-115.8,-900.9,0,0,4602,0,168,0,
2.5600,125.7,-71.4,0.0,-74.4,-402.3,-115.5,-895.8,0,0,4608,0,169,0,
2.5633,123.9,-73.8,1.2,-69.6,-403.2,-114.3,-894.6,0,0,4614,0,170,0,
2.5667,122.4,-73.8,3.3,-69.6,-403.2,-116.7,-892.2,0,0,4620,0,171,0,
2.5700,126.3,-74.4,0.3,-69.6,-398.7,-113.4,-889.2,0,0,4626,0,172,0,
2.5733,123.3,-85.8,-3.3,-71.7,-402.6,-115.5,-893.7,0,0,4632,0,173,0,
2.5767,119.4,-84.3,0.6,-65.4,-402.6,-117.3,-898.5,0,0,4638,0,174,0,
2.5800,119.7,-78.6,0.3,-65.7,-401.7,-117.3,-899.1,0,0,4644,0,175,0,
2.5833,123.0,-72.0,2.4,-65.7,-403.8,-115.8,-897.0,0,0,4650,0,176,0,
2.5867,119.4,-77.7,0.3,-66.6,-405.3,-117.6,-913.2,0,0,4656,0,177,0,
2.5900,121.8,-76.2,3.9,-65.7,-404.4,-114.3,-906.6,0,0,4662,0,178,0,
2.5933,118.2,-79.2,0.9,-68.1,-406.2,-114.0,-905.7,0,0,4668,0,179,0,
2.5967,121.5,-79.2,2.1,-70.2,-406.5,-118.5,-896.4,0,0,4674,0,180,0,
2.6000,122.7,-70.8,7.2,-67.2,-405.9,-116.7,-902.7,0,0,4680,0,181,0,
2.6033,119.7,-72.0,5.1,-66.3,-404.4,-115.5,-910.8,0,0,4686,0,182,0,
2.6067,123.0,-72.3,6.6,-65.1,-403.2,-114.3,-909.9,0,0,4692,0,183,0,
2.6100,119.1,-76.8,4.2,-63.6,-405.0,-117.9,-911.1,0,0,4698,0,184,0,
2.6133,126.0,-73.2,6.3,-63.0,-402.0,-109.2,-899.4,0,0,4704,0,185,0,
2.6167,117.0,-71.1,11.4,-64.2,-401.4,-113.1,-898.5,0,0,4710,0,186,0,
2.6200,121.5,-75.0,10.2,-61.8,-400.8,-108.6,-896.4,0,0,4716,0,187,0,
2.6233,117.3,-78.9,0.9,-64.5,-402.3,-119.7,-901.2,0,0,4722,0,188,0,
2.6267,119.1,-75.6,1.2,-66.0,-401.1,-123.3,-897.9,0,0,4728,0,189,0,
2.6300,116.4,-76.5,6.3,-63.0,-402.6,-120.3,-900.0,0,0,4734,0,190,0,
2.6333,116.4,-70.5,7.2,-66.0,-401.4,-118.2,-894.9,0,0,4740,0,191,0,
2.6367,114.9,-70.5,7.8,-65.1,-399.3,-118.2,-902.7,0,0,4746,0,192,0,
2.6400,117.3,-59.4,12.3,-62.4,-399.3,-117.9,-900.9,0,0,4752,0,193,0,
2.6433,116.4,-71.7,5.4,-63.0,-399.0,-111.6,-899.1,0,0,4758,0,194,0,
2.6467,113.1,-85.2,6.3,-64.2,-401.7,-114.6,-898.5,0,0,4764,0,195,0,
2.6500,115.5,-75.0,2.4,-68.7,-404.4,-116.7,-899.4,0,0,4770,0,196,0,
2.6533,118.2,-69.6,-3.6,-69.3,-404.4,-117.9,-898.8,0,0,4776,0,197,0,
2.6567,119.4,-73.5,-2.1,-69.9,-402.3,-118.2,-897.0,0,0,4782,0,198,0,
2.6600,118.5,-75.0,1.5,-66.3,-401.1,-118.8,-909.6,0,0,4788,0,199,0,
2.6633,106.5,-90.0,-6.3,-76.8,-385.8,-140.7,-923.4,0,0,4794,0,200,0,
2.6667,122.1,-72.9,3.9,-69.0,-410.7,-111.9,-902.4,0,0,4800,0,201,0,
2.6700,123.6,-72.3,1.5,-64.2,-408.6,-113.1,-900.9,0,0,4806,0,202,0,
2.6733,122.1,-84.0,0.3,-68.7,-407.4,-118.5,-903.9,0,0,4812,0,203,0,
2.6767,120.0,-79.5,3.3,-71.1,-403.8,-114.9,-896.7,0,0,4818,0,204,0,
2.6800,116.7,-76.5,3.3,-69.6,-405.0,-112.8,-898.2,0,0,4824,0,205,0,
2.6833,117.3,-77.1,6.0,-69.9,-404.4,-117.3,-900.3,0,0,4830,0,206,0,
2.6867,122.1,-78.0,5.7,-70.5,-406.8,-119.7,-902.4,0,0,4836,0,207,0,
2.6900,127.8,-67.2,7.5,-70.2,-402.9,-117.0,-894.0,0,0,4842,0,208,0,
2.6933,124.5,-75.9,8.1,-66.3,-401.4,-118.2,-903.3,0,0,4848,0,209,0,
2.6967,122.1,-82.2,6.9,-68.7,-403.5,-117.0,-899.1,0,0,4854,0,210,0,
2.7000,120.9,-75.9,5.4,-72.0,-404.7,-118.5,-902.4,0,0,4860,0,211,0,
2.7033,116.7,-79.2,3.0,-70.8,-405.0,-122.4,-900.0,0,0,4866,0,212,0,
2.7067,112.2,-82.5,1.8,-71.1,-403.8,-123.6,-903.6,0,0,4872,0,213,0,
2.7100,116.1,-83.1,2.7,-73.5,-406.5,-126.3,-916.2,0,0,4878,0,214,0,
2.7133,118.5,-87.9,4.5,-74.4,-403.5,-125.1,-912.6,0,0,4884,0,215,0,
2.7167,123.3,-81.9,8.7,-71.7,-400.8,-117.0,-912.6,0,0,4890,0,216,0,
2.7200,120.0,-81.9,-2.7,-76.2,-402.6,-122.7,-917.1,0,0,4896,0,217,0,
2.7233,117.9,-84.6,0.9,-75.9,-404.7,-121.5,-912.9,0,0,4902,0,218,0,
2.7267,113.7,-84.9,0.6,-75.9,-402.9,-126.3,-923.7,0,0,4908,0,219,0,
2.7300,127.5,-69.3,3.6,-70.2,-398.1,-113.7,-900.3,0,0,4914,0,220,0,
2.7333,130.2,-64.5,6.6,-66.0,-394.8,-113.7,-886.5,0,0,4920,0,221,0,
2.7367,127.2,-79.2,3.3,-73.5,-399.6,-115.5,-897.6,0,0,4926,0,222,0,
2.7400,129.6,-78.0,1.2,-71.7,-399.0,-114.0,-900.3,0,0,4932,0,223,0,
2.7433,123.0,-80.4,1.5,-71.7,-397.2,-115.2,-903.3,0,0,4938,0,224,0,
2.7467,118.8,-72.6,2.7,-71.7,-399.9,-119.1,-906.0,0,0,4944,0,225,0,
2.7500,129.0,-62.4,6.9,-71.4,-396.0,-112.2,-891.0,0,0,4950,0,226,0,
2.7533,128.1,-60.3,9.9,-72.0,-397.5,-111.3,-889.2,0,0,4956,0,227,0,
2.7567,116.4,-70.2,2.4,-74.4,-379.8,-123.6,-903.9,0,0,4962,0,228,0,
2.7600,123.9,-60.6,9.0,-68.4,-389.4,-108.6,-889.5,0,0,4968,0,229,0,
2.7633,132.3,-60.3,19.5,-61.8,-409.2,-94.8,-884.1,0,0,4974,0,230,0,
2.7667,126.6,-69.0,10.5,-70.5,-401.1,-110.1,-897.0,0,0,4980,0,231,0,
2.7700,121.2,-69.6,11.4,-70.5,-402.9,-108.0,-892.2,0,0,4986,0,232,0,
2.7733,122.7,-66.6,10.8,-73.2,-404.4,-115.5,-901.2,0,0,4992,0,233,0,
2.7767,115.5,-75.9,8.4,-69.0,-399.9,-119.7,-905.1,0,0,4998,0,234,0,
2.7800,117.6,-72.3,7.5,-71.7,-402.3,-117.9,-900.0,0,0,5004,0,235,0,
2.7833,120.3,-69.6,8.1,-71.7,-400.8,-114.9,-903.0,0,0,5010,0,236,0,
2.7867,120.9,-69.0,9.0,-69.9,-399.9,-115.5,-903.3,0,0,5016,0,237,0,
2.7900,123.0,-66.0,4.8,-65.4,-398.1,-112.2,-913.8,0,0,5022,0,238,0,
2.7933,123.0,-70.8,5.4,-69.0,-397.8,-113.4,-915.3,0,0,5028,0,239,0,
2.7967,120.6,-65.7,9.0,-65.7,-399.3,-118.2,-903.9,0,0,5034,0,240,0,
2.8000,118.8,-66.6,4.8,-66.3,-395.1,-118.2,-896.7,0,0,5040,0,241,0,
2.8033,120.0,-70.5,3.3,-63.6,-395.4,-118.5,-894.9,0,0,5046,0,242,0,
2.8067,118.5,-70.5,6.6,-60.9,-397.5,-120.3,-903.3,0,0,5052,0,243,0,
2.8100,125.4,-66.3,11.7,-60.0,-397.5,-116.1,-906.9,0,0,5058,0,244,0,
2.8133,120.3,-79.5,5.7,-66.6,-398.1,-116.7,-913.2,0,0,5064,0,245,0,
2.8167,125.1,-78.9,3.9,-63.6,-396.0,-115.5,-909.6,0,0,5070,0,246,0,
2.8200,121.2,-61.2,7.2,-60.9,-395.1,-115.5,-898.2,0,0,5076,0,247,0,
2.8233,123.3,-63.9,5.7,-66.9,-393.3,-109.5,-891.0,0,0,5082,0,248,0,
2.8267,117.6,-69.9,0.3,-68.7,-397.8,-122.1,-901.2,0,0,5088,0,249,0,
2.8300,123.9,-71.1,4.2,-69.3,-393.6,-113.4,-898.8,0,0,5094,0,250,0,
2.8333,119.7,-74.4,0.6,-70.5,-394.5,-113.7,-899.7,0,0,5100,0,251,0,
2.8367,122.1,-72.9,2.4,-68.4,-392.4,-116.1,-898.2,0,0,5106,0,252,0,
2.8400,117.0,-73.2,-1.8,-69.6,-393.0,-120.0,-918.3,0,0,5112,0,253,0,
2.8433,115.5,-78.0,1.8,-70.8,-393.3,-124.2,-918.0,0,0,5118,0,254,0,
2.8467,119.1,-64.8,9.0,-68.7,-394.2,-114.9,-904.2,0,0,5124,0,255,0,
2.8500,119.4,-60.0,5.7,-64.8,-394.2,-113.7,-900.3,0,0,5130,0,0,0,
2.8533,125.7,-49.2,16.2,-59.1,-390.0,-114.0,-887.7,0,0,5136,0,1,0,
2.8567,103.8,-75.9,5.7,-75.0,-376.8,-137.4,-903.0,0,0,5142,0,2,0,
2.8600,118.8,-64.5,15.0,-65.1,-393.3,-111.9,-894.9,0,0,5148,0,3,0,
2.8633,119.1,-54.0,18.6,-63.6,-405.6,-111.9,-886.5,0,0,5154,0,4,0,
2.8667,113.7,-51.0,13.2,-68.1,-397.5,-113.7,-887.4,0,0,5160,0,5,0,
2.8700,116.4,-63.6,11.4,-66.3,-398.1,-111.9,-889.2,0,0,5166,0,6,0,
2.8733,114.0,-52.2,12.6,-65.4,-396.3,-105.0,-882.9,0,0,5172,0,7,0,
2.8767,114.9,-56.4,10.2,-68.4,-393.3,-108.9,-884.7,0,0,5178,0,8,0,
2.8800,115.2,-54.3,8.4,-64.5,-394.5,-112.2,-886.5,0,0,5184,0,9,0,
2.8833,115.5,-47.7,10.8,-65.1,-390.9,-111.6,-886.8,0,0,5190,0,10,0,
2.8867,114.0,-49.5,10.2,-67.2,-393.3,-112.5,-886.5,0,0,5196,0,11,0,
2.8900,117.0,-54.3,8.7,-64.2,-393.3,-115.5,-887.1,0,0,5202,0,12,0,
2.8933,119.7,-51.3,9.9,-63.3,-394.2,-114.3,-894.0,0,0,5208,0,13,0,
2.8967,115.2,-50.7,11.4,-61.8,-393.6,-116.7,-900.9,0,0,5214,0,14,0,
2.9000,111.9,-54.9,12.6,-68.7,-395.1,-118.2,-903.3,0,0,5220,0,15,0,
2.9033,117.3,-56.4,7.2,-68.4,-395.7,-118.8,-908.7,0,0,5226,0,16,0,
2.9067,111.3,-56.7,11.7,-68.7,-400.2,-117.6,-914.4,0,0,5232,0,17,0,
2.9100,114.6,-61.2,3.9,-70.2,-399.6,-116.4,-909.6,0,0,5238,0,18,0,
2.9133,118.8,-53.7,7.8,-66.9,-396.9,-116.1,-902.4,0,0,5244,0,19,0,
2.9167,114.0,-59.4,4.5,-68.1,-399.9,-120.9,-901.5,0,0,5250,0,20,0,
2.9200,114.6,-53.7,5.4,-67.8,-396.6,-122.1,-896.4,0,0,5256,0,21,0,
2.9233,116.1,-58.5,1.8,-70.2,-395.7,-122.7,-910.2,0,0,5262,0,22,0,
2.9267,121.2,-55.5,4.2,-70.2,-396.6,-117.3,-907.8,0,0,5268,0,23,0,
2.9300,114.3,-56.4,5.7,-70.5,-399.0,-118.5,-910.5,0,0,5274,0,24,0,
2.9333,111.3,-54.6,2.1,-72.6,-401.1,-119.7,-912.6,0,0,5280,0,25,0,
2.9367,111.3,-61.2,4.2,-71.4,-402.6,-119.1,-911.1,0,0,5286,0,26,0,
2.9400,111.6,-60.9,-4.2,-73.5,-382.5,-131.4,-925.8,0,0,5292,0,27,0,
2.9433,115.2,-57.0,-0.3,-69.3,-391.2,-122.1,-922.2,0,0,5298,0,28,0,
2.9467,119.4,-54.6,6.0,-63.6,-414.9,-111.6,-915.3,0,0,5304,0,29,0,
2.9500,119.7,-57.0,4.8,-65.1,-394.2,-118.5,-906.3,0,0,5310,0,30,0,
2.9533,120.0,-60.3,6.6,-66.3,-400.2,-120.6,-908.1,0,0,5316,0,31,0,
2.9567,109.2,-58.5,0.0,-70.8,-401.1,-126.9,-928.8,0,0,5322,0,32,0,
2.9600,114.9,-55.8,9.0,-67.5,-396.9,-119.7,-919.5,0,0,5328,0,33,0,
2.9633,119.4,-50.1,9.6,-62.4,-394.8,-117.6,-906.6,0,0,5334,0,34,0,
2.9667,117.9,-53.4,6.9,-63.3,-393.9,-118.8,-900.3,0,0,5340,0,35,0,
2.9700,120.0,-56.4,7.8,-61.8,-391.5,-114.3,-900.0,0,0,5346,0,36,0,
2.9733,124.8,-49.5,6.6,-65.4,-391.8,-111.9,-904.2,0,0,5352,0,37,0,
2.9767,117.6,-56.4,6.6,-66.6,-389.7,-109.5,-904.8,0,0,5358,0,38,0,
2.9800,118.5,-57.6,3.9,-67.8,-391.5,-107.4,-902.4,0,0,5364,0,39,0,
2.9833,120.0,-48.6,3.9,-63.9,-392.4,-110.1,-903.9,0,0,5370,0,40,0,
2.9867,118.8,-53.7,6.3,-65.1,-390.6,-114.3,-909.6,0,0,5376,0,41,0,
2.9900,121.8,-59.1,13.5,-63.3,-390.6,-113.1,-912.9,0,0,5382,0,42,0,
2.9933,121.2,-57.0,6.9,-62.4,-387.9,-113.4,-909.0,0,0,5388,0,43,0,
2.9967,121.2,-56.4,5.1,-64.2,-393.0,-115.5,-909.9,0,0,5394,0,44,0,
3.0000,118.2,-53.7,5.1,-60.9,-390.9,-114.3,-907.5,0,0,5400,0,45,0,
3.0033,124.2,-51.3,4.5,-64.2,-391.8,-115.2,-913.2,0,0,5406,0,46,0,
3.0067,118.5,-53.4,7.5,-69.0,-394.8,-117.9,-914.1,0,0,5412,0,47,0,
3.0100,115.8,-62.1,2.7,-72.3,-396.0,-120.3,-905.1,0,0,5418,0,48,0,
3.0133,109.5,-79.5,-3.9,-73.8,-396.3,-120.0,-913.5,0,0,5424,0,49,0,
3.0167,108.6,-84.6,-7.8,-77.4,-398.4,-124.2,-924.0,0,0,5430,0,50,0,
3.0200,107.1,-70.2,-0.9,-71.7,-399.6,-128.4,-925.5,0,0,5436,0,51,0,
3.0233,94.8,-75.0,-13.5,-77.1,-379.5,-144.0,-936.6,0,0,5442,0,52,0,
3.0267,114.3,-54.6,1.5,-63.9,-405.6,-108.9,-905.1,0,0,5448,0,53,0,
3.0300,110.4,-67.8,-3.6,-70.2,-403.2,-118.8,-909.6,0,0,5454,0,54,0,
3.0333,106.2,-76.5,-5.1,-71.4,-398.4,-116.1,-916.8,0,0,5460,0,55,0,
3.0367,99.3,-78.9,-9.6,-72.6,-402.0,-122.4,-930.0,0,0,5466,0,56,0,
3.0400,102.0,-68.1,-9.3,-70.2,-399.0,-120.6,-930.0,0,0,5472,0,57,0,
3.0433,100.8,-74.1,-12.6,-74.4,-399.0,-120.3,-940.8,0,0,5478,0,58,0,
3.0467,103.5,-71.7,-6.0,-68.1,-393.3,-122.4,-938.1,0,0,5484,0,59,0,
3.0500,104.4,-75.9,-8.1,-72.9,-396.0,-125.4,-915.3,0,0,5490,0,60,0,
3.0533,107.1,-79.5,-6.6,-73.2,-396.9,-122.1,-909.0,0,0,5496,0,61,0,
3.0567,99.3,-80.1,-12.3,-78.0,-399.6,-125.1,-918.0,0,0,5502,0,62,0,
3.0600,104.1,-65.4,-6.3,-71.4,-394.2,-114.0,-911.4,0,0,5508,0,63,0,
3.0633,103.8,-67.8,-5.1,-74.7,-397.2,-120.9,-920.4,0,0,5514,0,64,0,
3.0667,100.5,-78.0,-2.7,-71.1,-396.9,-128.4,-923.1,0,0,5520,0,65,0,
3.0700,103.8,-71.7,-0.3,-69.6,-396.3,-123.0,-922.8,0,0,5526,0,66,0,
3.0733,100.2,-66.3,-4.8,-71.7,-398.1,-128.1,-931.2,0,0,5532,0,67,0,
3.0767,97.2,-74.1,-10.5,-75.0,-396.6,-124.8,-938.4,0,0,5538,0,68,0,
3.0800,93.0,-77.1,-12.9,-76.5,-400.8,-126.9,-931.5,0,0,5544,0,69,0,
3.0833,108.0,-60.6,-6.0,-74.4,-394.5,-120.0,-909.9,0,0,5550,0,70,0,
3.0867,102.6,-66.0,-8.1,-72.3,-396.6,-120.6,-917.4,0,0,5556,0,71,0,
3.0900,107.7,-63.0,-1.5,-70.5,-393.6,-116.4,-910.2,0,0,5562,0,72,0,
3.0933,111.6,-71.1,-3.3,-64.5,-393.6,-113.7,-910.2,0,0,5568,0,73,0,
3.0967,106.8,-75.6,-9.3,-68.4,-398.4,-118.2,-927.6,0,0,5574,0,74,0,
3.1000,101.4,-76.5,-13.2,-70.8,-392.1,-125.4,-927.9,0,0,5580,0,75,0,
3.1033,95.4,-81.3,-19.8,-75.0,-383.4,-127.8,-929.7,0,0,5586,0,76,0,
3.1067,108.6,-61.5,-1.2,-64.8,-413.1,-103.2,-908.4,0,0,5592,0,77,0,
3.1100,102.6,-66.9,-3.6,-68.4,-401.4,-121.2,-920.7,0,0,5598,0,78,0,
3.1133,104.4,-66.3,-3.6,-68.4,-400.5,-121.5,-927.0,0,0,5604,0,79,0,
3.1167,99.6,-66.3,-3.9,-70.2,-401.7,-127.5,-927.9,0,0,5610,0,80,0,
3.1200,107.1,-69.3,0.0,-70.2,-401.1,-122.4,-914.1,0,0,5616,0,81,0,
3.1233,104.1,-67.8,-6.0,-70.2,-396.9,-119.4,-925.8,0,0,5622,0,82,0,
3.1267,105.0,-65.1,-1.8,-71.7,-398.4,-120.9,-918.6,0,0,5628,0,83,0,
3.1300,104.4,-69.9,-7.8,-73.5,-399.0,-119.4,-922.8,0,0,5634,0,84,0,
3.1333,101.1,-69.3,-8.4,-74.1,-395.7,-121.2,-929.1,0,0,5640,0,85,0,
3.1367,96.3,-72.6,-8.1,-70.8,-400.8,-121.5,-936.6,0,0,5646,0,86,0,
3.1400,100.8,-73.8,-8.1,-72.9,-398.7,-119.7,-936.0,0,0,5652,0,87,0,
3.1433,103.8,-72.0,-6.6,-73.5,-399.9,-121.8,-942.6,0,0,5658,0,88,0,
3.1467,99.9,-72.6,-9.3,-74.7,-399.0,-122.4,-937.5,0,0,5664,0,89,0,
3.1500,98.4,-69.0,-14.1,-69.9,-399.3,-120.9,-935.4,0,0,5670,0,90,0,
3.1533,100.8,-78.9,-12.9,-70.2,-402.6,-124.8,-933.0,0,0,5676,0,91,0,
3.1567,101.1,-76.2,-9.0,-70.5,-403.2,-123.3,-928.2,0,0,5682,0,92,0,
3.1600,100.8,-65.4,-10.2,-70.2,-401.7,-126.0,-929.7,0,0,5688,0,93,0,
3.1633,102.0,-71.1,-10.5,-71.7,-402.3,-123.3,-932.1,0,0,5694,0,94,0,
3.1667,91.5,-80.1,-12.3,-71.7,-399.3,-123.9,-934.8,0,0,5700,0,95,0,
3.1700,92.1,-83.7,-14.4,-72.9,-398.4,-124.5,-936.0,0,0,5706,0,96,0,
3.1733,77.7,-89.4,-23.7,-80.7,-385.8,-146.7,-951.3,0,0,5712,0,97,0,
3.1767,99.3,-78.0,-11.7,-71.1,-414.6,-116.7,-928.5,0,0,5718,0,98,0,
3.1800,94.8,-78.3,-12.6,-69.0,-408.0,-120.6,-931.2,0,0,5724,0,99,0,
3.1833,87.0,-87.6,-18.3,-73.8,-407.4,-124.2,-944.4,0,0,5730,0,100,0,
3.1867,86.1,-82.8,-20.7,-74.1,-408.0,-131.4,-945.0,0,0,5736,0,101,0,
3.1900,90.6,-80.4,-16.5,-75.3,-407.1,-125.1,-936.3,0,0,5742,0,102,0,
3.1933,93.9,-76.5,-15.6,-74.1,-401.4,-123.9,-933.6,0,0,5748,0,103,0,
3.1967,95.7,-65.4,-12.9,-76.2,-404.7,-120.6,-936.9,0,0,5754,0,104,0,
3.2000,95.1,-64.5,-17.4,-79.8,-399.9,-121.5,-954.3,0,0,5760,0,105,0,
3.2033,95.7,-68.7,-12.6,-76.5,-396.9,-116.1,-945.0,0,0,5766,0,106,0,
3.2067,103.5,-66.0,-4.5,-69.9,-394.8,-112.5,-914.4,0,0,5772,0,107,0,
3.2100,106.2,-69.6,-6.0,-69.3,-398.7,-112.8,-915.3,0,0,5778,0,108,0,
3.2133,104.1,-63.3,-7.8,-72.9,-397.8,-114.0,-916.5,0,0,5784,0,109,0,
3.2167,99.3,-73.2,-15.0,-79.8,-402.0,-117.0,-922.5,0,0,5790,0,110,0,
3.2200,98.1,-63.6,-11.7,-74.1,-399.9,-113.4,-931.5,0,0,5796,0,111,0,
3.2233,102.0,-61.8,-12.0,-72.3,-403.5,-110.4,-929.1,0,0,5802,0,112,0,
3.2267,98.1,-72.0,-15.3,-74.7,-403.8,-115.2,-931.2,0,0,5808,0,113,0,
3.2300,102.0,-67.2,-20.7,-75.0,-401.1,-112.8,-923.7,0,0,5814,0,114,0,
3.2333,110.7,-59.7,-15.9,-74.7,-401.4,-111.9,-928.2,0,0,5820,0,115,0,
3.2367,97.8,-78.9,-21.9,-82.5,-394.2,-130.5,-933.6,0,0,5826,0,116,0,
3.2400,97.2,-75.3,-24.0,-77.1,-390.9,-121.8,-929.1,0,0,5832,0,117,0,
3.2433,115.8,-54.3,-7.2,-70.2,-410.4,-94.2,-914.1,0,0,5838,0,118,0,
3.2467,109.5,-57.9,-10.2,-76.5,-398.4,-106.8,-927.6,0,0,5844,0,119,0,
3.2500,113.4,-54.3,-11.7,-75.3,-396.9,-102.6,-932.7,0,0,5850,0,120,0,
3.2533,110.4,-59.1,-13.8,-77.7,-396.0,-109.8,-928.2,0,0,5856,0,121,0,
3.2567,113.7,-54.0,-6.9,-73.8,-397.8,-110.1,-921.3,0,0,5862,0,122,0,
3.2600,109.8,-61.5,-14.4,-75.3,-400.5,-112.5,-925.5,0,0,5868,0,123,0,
3.2633,111.0,-56.1,-6.6,-73.5,-399.0,-113.1,-925.8,0,0,5874,0,124,0,
3.2667,109.5,-54.9,-4.5,-72.3,-400.5,-108.3,-930.9,0,0,5880,0,125,0,
3.2700,111.9,-53.7,-3.3,-69.6,-395.7,-110.4,-919.8,0,0,5886,0,126,0,
3.2733,115.8,-57.9,1.5,-70.2,-398.7,-113.4,-918.9,0,0,5892,0,127,0,
3.2767,111.0,-60.0,-1.8,-70.8,-397.8,-115.8,-934.5,0,0,5898,0,128,0,
3.2800,111.6,-68.7,-7.2,-72.3,-398.1,-114.3,-932.1,0,0,5904,0,129,0,
3.2833,111.6,-65.4,0.0,-70.5,-397.2,-108.3,-926.7,0,0,5910,0,130,0,
3.2867,112.8,-63.6,1.2,-72.9,-399.9,-111.3,-925.5,0,0,5916,0,131,0,
3.2900,109.8,-62.4,-6.0,-74.4,-400.2,-113.1,-930.3,0,0,5922,0,132,0,
3.2933,105.3,-60.0,-2.7,-75.3,-400.2,-112.8,-934.8,0,0,5928,0,133,0,
3.2967,115.5,-50.1,0.0,-71.4,-399.3,-110.7,-924.6,0,0,5934,0,134,0,
3.3000,113.1,-53.1,-2.7,-74.7,-395.7,-116.1,-913.5,0,0,5940,0,135,0,
3.3033,108.0,-60.9,-7.8,-74.1,-384.3,-123.3,-932.7,0,0,5946,0,136,0,
3.3067,120.3,-44.7,2.4,-69.6,-415.2,-97.8,-920.4,0,0,5952,0,137,0,
3.3100,119.7,-47.1,-5.4,-70.5,-399.3,-104.4,-930.9,0,0,5958,0,138,0,
3.3133,125.7,-46.2,3.6,-70.8,-397.2,-102.6,-910.2,0,0,5964,0,139,0,
3.3167,118.5,-52.2,-0.6,-71.7,-397.2,-107.4,-913.2,0,0,5970,0,140,0,
3.3200,118.5,-47.7,-2.7,-70.8,-399.0,-108.3,-915.0,0,0,5976,0,141,0,
3.3233,123.6,-47.1,0.3,-70.5,-396.6,-104.7,-911.7,0,0,5982,0,142,0,
3.3267,119.1,-52.5,-4.5,-76.2,-399.9,-109.2,-924.9,0,0,5988,0,143,0,
3.3300,113.4,-56.4,-10.2,-75.6,-400.5,-108.3,-918.9,0,0,5994,0,144,0,
3.3333,117.9,-58.8,-4.5,-73.5,-397.2,-108.9,-916.5,0,0,6000,0,145,0,
3.3367,121.5,-57.9,0.9,-73.5,-396.3,-105.6,-911.1,0,0,6006,0,146,0,
3.3400,123.3,-64.2,-4.8,-76.8,-398.1,-106.2,-913.2,0,0,6012,0,147,0,
3.3433,123.0,-55.8,0.0,-70.8,-394.8,-105.0,-907.5,0,0,6018,0,148,0,
3.3467,126.0,-51.9,1.2,-70.2,-396.0,-103.5,-906.3,0,0,6024,0,149,0,
3.3500,118.5,-47.1,2.4,-63.9,-395.4,-104.4,-918.3,0,0,6030,0,150,0,
3.3533,117.6,-53.7,0.6,-69.6,-382.2,-115.2,-927.0,0,0,6036,0,151,0,
3.3567,112.2,-54.0,-1.5,-71.1,-382.5,-108.0,-916.5,0,0,6042,0,152,0,
3.3600,137.1,-35.1,16.2,-56.7,-404.1,-83.1,-888.9,0,0,6048,0,153,0,
3.3633,124.2,-46.8,3.3,-67.2,-393.9,-106.8,-898.2,0,0,6054,0,154,0,
3.3667,123.9,-51.6,3.0,-68.7,-398.4,-105.9,-903.0,0,0,6060,0,155,0,
3.3700,120.6,-57.9,-2.4,-72.3,-398.1,-106.5,-912.6,0,0,6066,0,156,0,
3.3733,123.3,-54.6,2.1,-70.2,-395.1,-99.6,-907.2,0,0,6072,0,157,0,
3.3767,122.1,-59.4,-2.4,-70.8,-399.6,-110.4,-904.2,0,0,6078,0,158,0,
3.3800,116.1,-61.2,-3.0,-73.2,-398.7,-111.0,-906.0,0,0,6084,0,159,0,
3.3833,112.5,-66.0,-5.4,-77.4,-398.7,-115.5,-912.3,0,0,6090,0,160,0,
3.3867,113.1,-58.8,-5.1,-73.8,-398.4,-113.4,-906.6,0,0,6096,0,161,0,
3.3900,121.5,-53.7,3.6,-70.8,-393.6,-109.8,-900.6,0,0,6102,0,162,0,
3.3933,118.5,-57.0,1.5,-71.1,-394.2,-109.5,-902.4,0,0,6108,0,163,0,
3.3967,116.7,-62.4,5.4,-75.0,-401.1,-112.2,-905.4,0,0,6114,0,164,0,
3.4000,119.4,-58.8,2.7,-72.3,-395.7,-110.7,-902.7,0,0,6120,0,165,0,
3.4033,118.8,-60.9,4.2,-74.7,-395.7,-111.0,-903.9,0,0,6126,0,166,0,
3.4067,120.6,-63.3,-1.5,-72.3,-398.1,-110.4,-902.7,0,0,6132,0,167,0,
3.4100,116.1,-63.0,3.0,-73.2,-395.4,-112.5,-903.9,0,0,6138,0,168,0,
3.4133,121.2,-67.8,7.2,-69.0,-393.3,-107.7,-908.7,0,0,6144,0,169,0,
3.4167,121.8,-72.3,13.2,-67.5,-392.7,-105.9,-910.5,0,0,6150,0,170,0,
3.4200,123.0,-52.2,9.6,-66.0,-394.8,-106.8,-900.0,0,0,6156,0,171,0,
3.4233,118.2,-49.8,9.0,-67.2,-394.8,-112.8,-895.8,0,0,6162,0,172,0,
3.4267,115.5,-65.1,11.1,-69.3,-395.1,-117.9,-896.4,0,0,6168,0,173,0,
3.4300,103.8,-77.1,0.3,-78.6,-377.4,-135.3,-920.4,0,0,6174,0,174,0,
3.4333,123.3,-50.4,10.5,-68.1,-399.6,-105.6,-904.5,0,0,6180,0,175,0,
3.4367,129.3,-48.6,10.8,-63.0,-398.7,-110.7,-908.1,0,0,6186,0,176,0,
3.4400,116.7,-58.8,8.1,-64.2,-397.8,-114.6,-914.4,0,0,6192,0,177,0,
3.4433,115.2,-67.5,5.1,-69.9,-399.3,-116.7,-908.7,0,0,6198,0,178,0,
3.4467,121.8,-54.9,12.9,-69.3,-395.4,-111.3,-902.4,0,0,6204,0,179,0,
3.4500,122.7,-54.3,9.6,-66.0,-394.5,-114.0,-893.1,0,0,6210,0,180,0,
3.4533,124.5,-56.1,11.4,-65.4,-393.0,-117.3,-889.5,0,0,6216,0,181,0,
3.4567,122.7,-62.1,7.5,-67.2,-393.6,-119.7,-895.2,0,0,6222,0,182,0,
3.4600,125.4,-61.5,4.8,-69.9,-390.3,-118.5,-899.7,0,0,6228,0,183,0,
3.4633,123.3,-56.4,2.7,-72.3,-388.2,-113.1,-900.3,0,0,6234,0,184,0,
3.4667,123.9,-57.3,3.3,-71.7,-391.5,-115.2,-904.2,0,0,6240,0,185,0,
3.4700,122.7,-61.2,3.3,-67.8,-390.3,-115.8,-903.9,0,0,6246,0,186,0,
3.4733,123.9,-61.5,5.4,-66.9,-391.2,-111.3,-899.4,0,0,6252,0,187,0,
3.4767,128.7,-60.9,11.1,-65.7,-392.7,-112.2,-896.1,0,0,6258,0,188,0,
3.4800,137.7,-53.1,15.9,-62.4,-386.1,-106.5,-888.6,0,0,6264,0,189,0,
3.4833,126.3,-55.2,10.8,-64.2,-388.2,-109.2,-901.2,0,0,6270,0,190,0,
3.4867,135.9,-50.4,12.3,-62.7,-385.2,-106.5,-899.4,0,0,6276,0,191,0,
3.4900,130.2,-57.3,8.1,-66.9,-390.3,-110.7,-894.0,0,0,6282,0,192,0,
3.4933,129.3,-54.9,7.2,-66.3,-386.4,-114.6,-884.7,0,0,6288,0,193,0,
3.4967,129.9,-54.0,8.7,-69.0,-387.6,-113.1,-890.4,0,0,6294,0,194,0,
3.5000,122.1,-63.6,3.9,-72.0,-379.8,-128.4,-903.3,0,0,6300,0,195,0,
3.5033,123.0,-70.2,3.3,-75.0,-383.1,-123.6,-901.2,0,0,6306,0,196,0,
3.5067,139.2,-50.7,16.2,-64.2,-402.3,-102.9,-881.1,0,0,6312,0,197,0,
3.5100,129.6,-53.1,6.9,-69.0,-387.6,-112.5,-891.0,0,0,6318,0,198,0,
3.5133,125.1,-53.4,7.8,-67.2,-391.8,-114.9,-912.0,0,0,6324,0,199,0,
3.5167,118.2,-59.4,6.0,-73.2,-394.2,-120.9,-915.9,0,0,6330,0,200,0,
3.5200,114.3,-66.0,3.3,-72.3,-396.3,-122.1,-910.2,0,0,6336,0,201,0,
3.5233,111.3,-66.0,3.0,-71.1,-394.8,-120.6,-894.6,0,0,6342,0,202,0,
3.5267,123.0,-61.8,8.1,-65.1,-393.0,-121.2,-900.9,0,0,6348,0,203,0,
3.5300,119.4,-63.6,5.1,-67.2,-396.0,-123.3,-903.6,0,0,6354,0,204,0,
3.5333,122.4,-67.8,6.3,-68.7,-393.9,-121.8,-898.8,0,0,6360,0,205,0,
3.5367,125.1,-66.6,6.3,-67.8,-388.8,-113.7,-904.5,0,0,6366,0,206,0,
3.5400,123.3,-66.0,4.2,-69.9,-390.3,-114.0,-904.2,0,0,6372,0,207,0,
3.5433,121.8,-71.1,1.2,-70.8,-393.6,-115.5,-904.2,0,0,6378,0,208,0,
3.5467,120.3,-67.8,6.6,-67.5,-390.3,-116.1,-897.3,0,0,6384,0,209,0,
3.5500,126.0,-55.2,9.9,-64.8,-385.5,-114.3,-881.7,0,0,6390,0,210,0,
3.5533,118.5,-58.5,0.9,-70.8,-386.4,-114.9,-892.5,0,0,6396,0,211,0,
3.5567,118.2,-53.1,1.2,-70.2,-384.6,-117.0,-896.1,0,0,6402,0,212,0,
3.5600,109.5,-53.4,-0.9,-75.3,-368.7,-127.2,-901.2,0,0,6408,0,213,0,
3.5633,132.0,-46.2,1.5,-69.3,-402.3,-102.9,-892.5,0,0,6414,0,214,0,
3.5667,122.1,-61.5,-1.5,-74.7,-389.1,-110.4,-904.5,0,0,6420,0,215,0,
3.5700,128.7,-63.6,-5.4,-71.7,-384.9,-113.1,-887.7,0,0,6426,0,216,0,
3.5733,123.9,-59.7,-5.7,-76.8,-383.4,-107.7,-897.0,0,0,6432,0,217,0,
3.5767,123.6,-61.2,-4.2,-74.4,-383.1,-110.1,-895.5,0,0,6438,0,218,0,
3.5800,116.1,-75.0,-9.9,-79.5,-387.9,-109.2,-905.1,0,0,6444,0,219,0,
3.5833,117.0,-67.2,-5.4,-79.2,-387.9,-108.9,-899.7,0,0,6450,0,220,0,
3.5867,128.1,-61.8,-3.3,-75.0,-387.0,-109.2,-889.8,0,0,6456,0,221,0,
3.5900,126.6,-50.4,6.9,-73.2,-387.6,-110.7,-880.5,0,0,6462,0,222,0,
3.5933,125.4,-54.0,-0.9,-72.3,-387.0,-111.6,-881.7,0,0,6468,0,223,0,
3.5967,116.1,-66.6,0.6,-75.0,-385.2,-111.6,-898.5,0,0,6474,0,224,0,
3.6000,116.7,-68.1,-5.7,-74.7,-385.2,-108.9,-905.7,0,0,6480,0,225,0,
3.6033,118.2,-57.9,1.8,-72.0,-382.8,-108.3,-896.1,0,0,6486,0,226,0,
3.6067,119.7,-56.4,2.1,-73.8,-385.5,-118.2,-891.6,0,0,6492,0,227,0,
3.6100,99.9,-75.9,-11.1,-83.7,-373.5,-139.5,-910.2,0,0,6498,0,228,0,
3.6133,123.0,-66.6,2.7,-69.9,-399.9,-103.8,-887.7,0,0,6504,0,229,0,
3.6167,120.3,-62.1,1.5,-69.0,-394.2,-109.8,-905.7,0,0,6510,0,230,0,
3.6200,115.8,-74.1,-6.6,-77.1,-389.4,-111.9,-922.8,0,0,6516,0,231,0,
3.6233,117.3,-64.2,-3.3,-75.9,-390.6,-115.5,-908.7,0,0,6522,0,232,0,
3.6267,117.0,-61.2,0.9,-71.7,-391.8,-116.7,-911.1,0,0,6528,0,233,0,
3.6300,116.1,-69.3,-3.6,-74.4,-388.5,-118.2,-915.9,0,0,6534,0,234,0,
3.6333,115.8,-70.5,-5.1,-74.4,-391.2,-114.0,-905.4,0,0,6540,0,235,0,
3.6367,108.3,-69.3,-6.9,-77.4,-392.1,-120.9,-905.1,0,0,6546,0,236,0,
3.6400,106.2,-72.3,-10.2,-78.3,-391.8,-121.2,-911.4,0,0,6552,0,237,0,
3.6433,110.4,-65.1,-4.2,-75.0,-387.9,-115.5,-904.2,0,0,6558,0,238,0,
3.6467,111.0,-69.9,-3.3,-75.6,-389.4,-115.8,-908.1,0,0,6564,0,239,0,
3.6500,104.1,-68.1,-10.2,-80.1,-394.8,-121.2,-914.4,0,0,6570,0,240,0,
3.6533,100.5,-69.3,-6.0,-79.8,-397.5,-128.7,-908.7,0,0,6576,0,241,0,
3.6567,102.3,-79.5,-2.7,-78.3,-395.1,-128.1,-915.3,0,0,6582,0,242,0,
3.6600,111.6,-81.0,-0.9,-73.8,-391.5,-118.5,-909.0,0,0,6588,0,243,0,
3.6633,109.5,-67.8,3.9,-71.7,-389.7,-116.1,-911.1,0,0,6594,0,244,0,
3.6667,96.9,-72.6,-5.1,-73.5,-397.8,-127.5,-926.1,0,0,6600,0,245,0,
3.6700,99.0,-69.9,-1.2,-72.6,-393.6,-120.6,-928.5,0,0,6606,0,246,0,
3.6733,103.2,-72.9,-2.1,-74.4,-395.7,-119.7,-925.5,0,0,6612,0,247,0,
3.6767,105.9,-69.0,-1.8,-71.7,-390.9,-125.4,-912.9,0,0,6618,0,248,0,
3.6800,103.5,-72.3,-3.3,-72.6,-394.5,-129.0,-920.1,0,0,6624,0,249,0,
3.6833,109.2,-65.4,0.6,-67.8,-393.6,-124.5,-909.9,0,0,6630,0,250,0,
3.6867,99.0,-70.8,0.6,-74.1,-381.0,-141.3,-916.2,0,0,6636,0,251,0,
3.6900,101.1,-63.6,0.3,-67.5,-379.5,-134.1,-916.5,0,0,6642,0,252,0,
3.6933,113.7,-56.1,13.5,-60.9,-401.7,-110.7,-903.3,0,0,6648,0,253,0,
3.6967,98.1,-66.0,6.3,-68.4,-393.9,-134.7,-920.1,0,0,6654,0,254,0,
3.7000,102.9,-63.6,8.7,-69.0,-392.1,-129.0,-922.2,0,0,6660,0,255,0,
3.7033,106.5,-63.0,3.9,-67.5,-387.0,-124.8,-917.1,0,0,6666,0,0,0,
3.7067,104.4,-64.2,7.2,-68.7,-386.4,-121.2,-910.8,0,0,6672,0,1,0,
3.7100,108.9,-63.0,6.3,-70.2,-388.5,-120.3,-909.3,0,0,6678,0,2,0,
3.7133,102.9,-73.2,5.7,-72.3,-386.7,-127.5,-916.8,0,0,6684,0,3,0,
3.7167,107.4,-69.6,6.0,-70.2,-387.9,-121.2,-919.2,0,0,6690,0,4,0,
3.7200,103.2,-60.0,4.5,-71.1,-386.1,-119.7,-919.8,0,0,6696,0,5,0,
3.7233,99.0,-70.2,2.7,-68.1,-389.4,-120.0,-924.3,0,0,6702,0,6,0,
3.7267,100.8,-69.6,1.2,-70.5,-389.1,-122.4,-935.7,0,0,6708,0,7,0,
3.7300,107.4,-66.9,4.2,-68.7,-385.8,-119.4,-921.0,0,0,6714,0,8,0,
3.7333,96.0,-76.8,-6.6,-75.6,-390.3,-129.0,-925.2,0,0,6720,0,9,0,
3.7367,94.5,-84.6,-3.6,-75.9,-387.9,-130.5,-921.3,0,0,6726,0,10,0,
3.7400,98.4,-86.1,-1.5,-74.4,-390.9,-131.4,-919.2,0,0,6732,0,11,0,
3.7433,98.7,-75.0,-1.5,-75.6,-389.1,-127.5,-923.1,0,0,6738,0,12,0,
3.7467,90.6,-75.9,-10.2,-76.8,-384.0,-134.7,-934.2,0,0,6744,0,13,0,
3.7500,84.6,-85.8,-12.9,-78.0,-372.0,-139.8,-932.4,0,0,6750,0,14,0,
3.7533,106.2,-61.2,1.5,-68.7,-402.9,-103.8,-909.9,0,0,6756,0,15,0,
3.7567,103.5,-68.7,-4.8,-69.9,-389.7,-117.6,-919.8,0,0,6762,0,16,0,
3.7600,104.4,-70.2,-4.2,-70.8,-390.3,-116.4,-921.0,0,0,6768,0,17,0,
3.7633,110.7,-58.8,4.5,-67.8,-385.5,-118.2,-913.2,0,0,6774,0,18,0,
3.7667,108.3,-59.4,5.4,-70.5,-390.9,-124.5,-924.0,0,0,6780,0,19,0,
3.7700,107.7,-60.3,5.7,-68.4,-387.6,-123.3,-919.8,0,0,6786,0,20,0,
3.7733,105.9,-65.7,2.1,-71.4,-391.5,-124.5,-916.5,0,0,6792,0,21,0,
3.7767,99.0,-76.5,-4.2,-73.8,-394.5,-128.7,-924.9,0,0,6798,0,22,0,
3.7800,99.3,-71.7,-1.2,-71.7,-390.3,-128.4,-931.8,0,0,6804,0,23,0,
3.7833,99.9,-69.6,2.1,-71.4,-388.8,-128.1,-931.2,0,0,6810,0,24,0,
3.7867,96.9,-68.4,0.0,-72.9,-388.5,-126.6,-920.4,0,0,6816,0,25,0,
3.7900,97.2,-70.2,5.4,-69.0,-391.2,-132.0,-919.8,0,0,6822,0,26,0,
3.7933,102.6,-57.0,7.2,-69.9,-388.8,-124.2,-900.9,0,0,6828,0,27,0,
3.7967,106.8,-59.1,10.2,-65.4,-383.7,-122.7,-908.1,0,0,6834,0,28,0,
3.8000,102.6,-69.3,8.7,-72.3,-386.7,-123.6,-907.8,0,0,6840,0,29,0,
3.8033,105.6,-63.3,3.3,-67.5,-385.8,-120.9,-905.1,0,0,6846,0,30,0,
3.8067,105.6,-66.0,1.8,-71.1,-385.2,-121.8,-917.4,0,0,6852,0,31,0,
3.8100,111.0,-64.5,6.9,-64.5,-382.5,-118.5,-914.4,0,0,6858,0,32,0,
3.8133,106.8,-58.8,7.5,-68.7,-380.1,-116.7,-909.9,0,0,6864,0,33,0,
3.8167,112.2,-59.4,7.8,-68.7,-382.5,-117.3,-897.3,0,0,6870,0,34,0,
3.8200,95.7,-69.9,0.3,-72.9,-382.8,-124.5,-911.7,0,0,6876,0,35,0,
3.8233,102.3,-70.5,-1.8,-75.0,-388.2,-127.5,-912.0,0,0,6882,0,36,0,
3.8267,92.1,-76.2,-9.6,-83.4,-370.8,-146.4,-924.0,0,0,6888,0,37,0,
3.8300,106.2,-60.0,0.9,-70.5,-392.7,-112.2,-905.4,0,0,6894,0,38,0,
3.8333,104.4,-64.5,1.2,-72.0,-393.0,-118.8,-919.5,0,0,6900,0,39,0,
3.8367,102.3,-69.9,-3.3,-73.8,-392.4,-120.3,-928.2,0,0,6906,0,40,0,
3.8400,103.5,-65.4,-0.3,-68.1,-387.6,-117.0,-918.3,0,0,6912,0,41,0,
3.8433,105.6,-64.2,0.9,-71.4,-388.5,-117.0,-910.5,0,0,6918,0,42,0,
3.8467,103.5,-68.1,-1.8,-73.5,-388.2,-122.1,-914.4,0,0,6924,0,43,0,
3.8500,104.4,-65.1,-3.3,-73.8,-388.8,-119.7,-903.6,0,0,6930,0,44,0,
3.8533,113.1,-69.9,-3.9,-72.9,-387.9,-116.1,-899.7,0,0,6936,0,45,0,
3.8567,109.8,-61.2,2.1,-68.1,-383.4,-115.5,-899.7,0,0,6942,0,46,0,
3.8600,107.1,-66.0,1.5,-67.8,-383.1,-119.4,-903.6,0,0,6948,0,47,0,
3.8633,111.9,-61.5,-1.5,-70.5,-387.9,-117.6,-909.6,0,0,6954,0,48,0,
3.8667,116.1,-60.0,1.8,-68.7,-381.9,-109.5,-917.7,0,0,6960,0,49,0,
3.8700,117.9,-58.5,4.5,-65.1,-379.2,-108.0,-907.5,0,0,6966,0,50,0,
3.8733,115.5,-56.4,4.5,-65.7,-382.2,-110.4,-908.4,0,0,6972,0,51,0,
3.8767,108.3,-61.5,3.3,-70.2,-373.8,-129.3,-910.8,0,0,6978,0,52,0,
3.8800,106.8,-64.5,-5.4,-74.4,-374.1,-124.5,-920.4,0,0,6984,0,53,0,
3.8833,118.5,-55.2,7.2,-63.9,-399.3,-102.0,-912.6,0,0,6990,0,54,0,
3.8867,105.3,-67.2,-1.2,-69.3,-384.0,-115.2,-932.4,0,0,6996,0,55,0,
3.8900,110.4,-52.8,4.2,-68.4,-386.4,-109.8,-915.6,0,0,7002,0,56,0,
3.8933,108.0,-60.0,-0.9,-69.0,-389.4,-121.8,-915.3,0,0,7008,0,57,0,
3.8967,109.8,-59.7,4.8,-69.3,-390.0,-120.0,-905.1,0,0,7014,0,58,0,
3.9000,114.9,-61.2,4.5,-69.3,-386.4,-117.6,-910.8,0,0,7020,0,59,0,
3.9033,114.3,-60.9,1.5,-72.9,-386.7,-118.2,-913.5,0,0,7026,0,60,0,
3.9067,113.7,-60.6,2.4,-74.7,-387.6,-117.6,-918.0,0,0,7032,0,61,0,
3.9100,117.0,-60.9,3.0,-71.1,-383.7,-119.4,-910.2,0,0,7038,0,62,0,
3.9133,114.3,-61.8,4.5,-71.4,-385.5,-117.6,-910.8,0,0,7044,0,63,0,
3.9167,118.2,-49.5,8.7,-71.4,-382.2,-114.3,-912.9,0,0,7050,0,64,0,
3.9200,118.5,-48.6,12.0,-70.8,-380.4,-110.7,-908.1,0,0,7056,0,65,0,
3.9233,119.7,-38.7,11.7,-73.2,-378.6,-105.0,-907.8,0,0,7062,0,66,0,
3.9267,120.9,-44.7,10.8,-70.8,-378.6,-105.0,-898.2,0,0,7068,0,67,0,
3.9300,123.3,-49.2,10.2,-66.9,-381.3,-110.1,-895.5,0,0,7074,0,68,0,
3.9333,130.5,-44.7,17.1,-66.6,-377.4,-108.3,-894.6,0,0,7080,0,69,0,
3.9367,122.7,-40.8,17.4,-68.7,-380.4,-109.5,-899.1,0,0,7086,0,70,0,
3.9400,126.9,-41.1,21.0,-64.2,-375.3,-103.5,-897.6,0,0,7092,0,71,0,
3.9433,117.3,-51.9,6.9,-72.6,-370.2,-121.8,-909.9,0,0,7098,0,72,0,
3.9467,117.0,-50.7,9.3,-72.9,-366.3,-116.4,-908.7,0,0,7104,0,73,0,
3.9500,132.6,-33.3,19.5,-66.3,-394.2,-93.6,-888.6,0,0,7110,0,74,0,
3.9533,126.9,-38.7,15.3,-66.0,-378.9,-105.9,-890.4,0,0,7116,0,75,0,
3.9567,127.8,-38.4,18.6,-63.9,-380.4,-102.9,-890.1,0,0,7122,0,76,0,
3.9600,129.3,-39.9,15.6,-63.0,-377.4,-102.9,-899.7,0,0,7128,0,77,0,
3.9633,122.1,-41.1,16.8,-64.5,-378.6,-99.0,-899.1,0,0,7134,0,78,0,
3.9667,123.6,-45.6,16.5,-69.9,-380.7,-105.3,-902.1,0,0,7140,0,79,0,
3.9700,124.2,-48.3,13.5,-68.1,-380.7,-107.4,-900.9,0,0,7146,0,80,0,
3.9733,122.1,-43.5,12.6,-66.3,-379.8,-107.1,-907.5,0,0,7152,0,81,0,
3.9767,120.3,-50.1,10.2,-69.0,-381.6,-108.3,-910.5,0,0,7158,0,82,0,
3.9800,121.5,-41.1,9.0,-70.5,-381.9,-107.4,-901.8,0,0,7164,0,83,0,
3.9833,123.3,-39.9,8.7,-67.8,-379.5,-105.3,-897.3,0,0,7170,0,84,0,
3.9867,118.2,-44.4,6.6,-67.2,-381.9,-110.7,-902.7,0,0,7176,0,85,0,
3.9900,125.1,-46.8,10.2,-66.3,-377.7,-107.1,-911.7,0,0,7182,0,86,0,
3.9933,126.3,-48.3,9.6,-65.1,-375.3,-102.0,-908.7,0,0,7188,0,87,0,
3.9967,127.5,-50.7,13.5,-68.1,-376.8,-107.4,-914.7,0,0,7194,0,88,0,
4.0000,126.9,-44.7,13.8,-66.3,-374.4,-102.9,-918.9,0,0,7200,0,89,0,
4.0033,125.1,-42.9,16.5,-61.8,-375.3,-106.5,-920.1,0,0,7206,0,90,0,
4.0067,131.7,-46.8,17.1,-62.7,-378.3,-100.2,-897.3,0,0,7212,0,91,0,
4.0100,128.1,-52.2,11.1,-64.5,-378.9,-106.2,-899.1,0,0,7218,0,92,0,
4.0133,125.1,-42.6,8.7,-65.1,-380.1,-110.1,-901.5,0,0,7224,0,93,0,
4.0167,117.3,-51.0,-2.4,-67.8,-360.3,-124.2,-921.3,0,0,7230,0,94,0,
4.0200,129.6,-32.7,11.1,-57.3,-387.6,-93.6,-904.5,0,0,7236,0,95,0,
4.0233,131.1,-44.1,9.0,-62.4,-381.3,-100.8,-906.9,0,0,7242,0,96,0,
4.0267,124.2,-49.2,9.9,-65.7,-381.3,-104.7,-915.6,0,0,7248,0,97,0,
4.0300,125.7,-46.8,14.7,-62.7,-378.9,-103.8,-915.9,0,0,7254,0,98,0,
4.0333,122.1,-40.5,8.1,-63.9,-380.7,-103.2,-915.6,0,0,7260,0,99,0,
4.0367,115.5,-41.4,2.1,-69.9,-384.3,-106.5,-919.8,0,0,7266,0,100,0,
4.0400,113.1,-51.6,0.0,-71.1,-380.7,-106.5,-922.5,0,0,7272,0,101,0,
4.0433,121.5,-57.3,3.3,-68.1,-381.9,-105.3,-919.5,0,0,7278,0,102,0,
4.0467,118.8,-54.0,5.1,-67.2,-380.1,-104.7,-916.5,0,0,7284,0,103,0,
4.0500,119.1,-50.7,2.4,-66.9,-378.0,-106.5,-912.6,0,0,7290,0,104,0,
4.0533,120.3,-52.2,5.7,-66.9,-376.5,-107.4,-916.2,0,0,7296,0,105,0,
4.0567,113.7,-51.9,-0.6,-71.1,-381.3,-110.4,-916.8,0,0,7302,0,106,0,
4.0600,122.7,-39.6,5.4,-68.1,-378.9,-108.9,-916.5,0,0,7308,0,107,0,
4.0633,124.5,-41.7,10.8,-63.3,-378.9,-108.0,-928.8,0,0,7314,0,108,0,
4.0667,117.3,-56.4,8.7,-67.2,-378.3,-108.6,-923.1,0,0,7320,0,109,0,
4.0700,120.6,-52.2,10.8,-66.6,-379.8,-109.2,-910.8,0,0,7326,0,110,0,
4.0733,122.4,-41.7,13.2,-64.8,-377.7,-106.2,-912.6,0,0,7332,0,111,0,
4.0767,127.2,-42.0,11.7,-59.4,-370.8,-110.1,-911.4,0,0,7338,0,112,0,
4.0800,111.3,-46.5,6.3,-66.6,-360.9,-116.4,-919.2,0,0,7344,0,113,0,
4.0833,134.1,-22.5,24.0,-58.8,-389.7,-89.7,-899.4,0,0,7350,0,114,0,
4.0867,121.5,-36.6,12.6,-64.8,-377.4,-101.4,-907.2,0,0,7356,0,115,0,
4.0900,119.7,-36.3,9.3,-66.6,-381.0,-98.1,-908.4,0,0,7362,0,116,0,
4.0933,114.6,-38.1,8.4,-67.2,-379.5,-101.1,-905.7,0,0,7368,0,117,0,
4.0967,117.6,-41.1,10.5,-67.8,-378.0,-98.4,-900.6,0,0,7374,0,118,0,
4.1000,119.7,-38.1,12.3,-64.2,-380.4,-105.0,-905.4,0,0,7380,0,119,0,
4.1033,117.6,-45.0,12.9,-66.6,-381.0,-104.4,-909.6,0,0,7386,0,120,0,
4.1067,113.7,-46.8,8.7,-64.2,-378.9,-105.9,-914.4,0,0,7392,0,121,0,
4.1100,116.4,-48.0,7.5,-63.9,-379.5,-105.6,-909.6,0,0,7398,0,122,0,
4.1133,119.1,-43.2,8.1,-59.4,-377.4,-101.1,-904.8,0,0,7404,0,123,0,
4.1167,114.9,-46.8,9.3,-65.4,-379.2,-102.6,-912.9,0,0,7410,0,124,0,
4.1200,120.3,-44.1,9.3,-62.1,-377.4,-97.8,-918.6,0,0,7416,0,125,0,
4.1233,118.8,-56.1,5.1,-65.7,-378.3,-99.6,-926.1,0,0,7422,0,126,0,
4.1267,111.3,-59.7,1.8,-68.4,-383.7,-103.2,-932.4,0,0,7428,0,127,0,
4.1300,109.2,-51.0,4.2,-69.0,-383.7,-105.6,-924.3,0,0,7434,0,128,0,
4.1333,113.4,-42.9,4.2,-66.9,-377.4,-108.9,-906.9,0,0,7440,0,129,0,
4.1367,102.3,-56.1,-3.3,-69.3,-364.8,-123.3,-919.2,0,0,7446,0,130,0,
4.1400,119.1,-41.1,3.9,-62.7,-395.4,-93.3,-903.6,0,0,7452,0,131,0,
4.1433,112.5,-48.6,2.1,-69.0,-383.1,-105.0,-911.1,0,0,7458,0,132,0,
4.1467,111.0,-54.0,4.2,-65.7,-383.4,-105.3,-912.6,0,0,7464,0,133,0,
4.1500,106.5,-61.2,0.9,-71.7,-382.2,-113.7,-921.9,0,0,7470,0,134,0,
4.1533,103.8,-69.9,-1.2,-72.9,-384.6,-112.2,-930.0,0,0,7476,0,135,0,
4.1567,103.2,-61.8,-0.9,-72.3,-382.8,-112.8,-928.2,0,0,7482,0,136,0,
4.1600,109.8,-66.0,-2.7,-75.6,-382.5,-106.8,-918.9,0,0,7488,0,137,0,
4.1633,101.4,-66.0,-5.4,-74.4,-385.2,-113.4,-931.2,0,0,7494,0,138,0,
4.1667,102.6,-69.0,-5.4,-75.3,-387.3,-117.3,-932.1,0,0,7500,0,139,0,
4.1700,104.1,-68.1,-2.1,-72.6,-385.5,-116.7,-933.0,0,0,7506,0,140,0,
4.1733,104.1,-72.0,-0.6,-72.9,-383.1,-114.6,-926.4,0,0,7512,0,141,0,
4.1767,100.2,-65.1,-0.9,-73.2,-388.5,-119.1,-925.2,0,0,7518,0,142,0,
4.1800,105.3,-57.9,-3.9,-75.0,-383.1,-114.6,-932.4,0,0,7524,0,143,0,
4.1833,102.6,-56.7,-1.5,-72.6,-384.6,-117.3,-935.4,0,0,7530,0,144,0,
4.1867,102.9,-60.0,-2.1,-74.1,-382.8,-120.9,-932.7,0,0,7536,0,145,0,
4.1900,108.9,-59.7,-0.3,-69.6,-380.1,-117.6,-921.9,0,0,7542,0,146,0,
4.1933,114.9,-58.5,1.8,-67.2,-378.3,-112.5,-912.3,0,0,7548,0,147,0,
4.1967,111.6,-56.7,-1.8,-67.2,-383.1,-109.8,-908.1,0,0,7554,0,148,0,
4.2000,112.5,-56.1,2.7,-67.5,-380.7,-111.3,-906.0,0,0,7560,0,149,0,
4.2033,116.7,-56.4,0.3,-65.4,-381.3,-107.4,-898.2,0,0,7566,0,150,0,
4.2067,108.3,-59.7,-3.3,-69.6,-383.4,-117.3,-902.1,0,0,7572,0,151,0,
4.2100,112.2,-55.2,-1.8,-68.1,-383.7,-114.9,-899.7,0,0,7578,0,152,0,
4.2133,99.6,-73.5,-11.7,-77.7,-366.9,-135.6,-920.1,0,0,7584,0,153,0,
4.2167,114.9,-58.8,5.7,-70.5,-387.3,-102.0,-909.6,0,0,7590,0,154,0,
4.2200,114.9,-60.6,5.1,-69.6,-390.9,-105.6,-908.4,0,0,7596,0,155,0,
4.2233,109.8,-59.7,3.0,-67.2,-382.2,-112.2,-903.0,0,0,7602,0,156,0,
4.2267,118.2,-58.5,8.4,-68.4,-380.1,-114.0,-900.3,0,0,7608,0,157,0,
4.2300,120.0,-61.5,10.8,-66.3,-381.6,-115.5,-909.9,0,0,7614,0,158,0,
4.2333,120.0,-60.0,11.1,-65.4,-380.7,-115.2,-909.9,0,0,7620,0,159,0,
4.2367,115.8,-65.1,9.9,-69.0,-383.1,-116.7,-911.1,0,0,7626,0,160,0,
4.2400,114.0,-65.7,8.1,-72.0,-384.0,-116.1,-906.0,0,0,7632,0,161,0,
4.2433,115.5,-59.7,7.2,-69.6,-385.8,-115.5,-912.0,0,0,7638,0,162,0,
4.2467,114.3,-65.7,3.0,-74.4,-385.5,-121.2,-918.9,0,0,7644,0,163,0,
4.2500,118.5,-63.0,10.2,-70.8,-384.6,-119.1,-907.2,0,0,7650,0,164,0,
4.2533,114.3,-66.6,7.2,-71.7,-386.1,-124.5,-903.9,0,0,7656,0,165,0,
4.2567,113.1,-63.3,8.1,-68.1,-385.8,-123.9,-900.9,0,0,7662,0,166,0,
4.2600,111.6,-67.5,9.6,-64.2,-383.4,-128.4,-904.5,0,0,7668,0,167,0,
4.2633,111.0,-74.1,6.9,-67.5,-383.1,-122.1,-913.2,0,0,7674,0,168,0,
4.2667,114.3,-66.9,9.9,-68.1,-384.3,-121.2,-911.7,0,0,7680,0,169,0,
4.2700,114.0,-69.3,9.0,-69.6,-383.4,-119.7,-909.3,0,0,7686,0,170,0,
4.2733,114.0,-68.4,12.0,-69.6,-379.2,-115.2,-904.2,0,0,7692,0,171,0,
4.2767,115.2,-68.4,15.6,-64.5,-378.3,-111.3,-897.0,0,0,7698,0,172,0,
4.2800,111.9,-68.7,7.2,-69.9,-370.5,-130.2,-907.2,0,0,7704,0,173,0,
4.2833,108.6,-72.9,3.6,-72.0,-370.2,-130.8,-915.3,0,0,7710,0,174,0,
4.2867,117.6,-52.2,18.6,-69.6,-397.5,-111.3,-896.7,0,0,7716,0,175,0,
4.2900,111.9,-62.1,6.9,-71.7,-383.4,-120.3,-902.4,0,0,7722,0,176,0,
4.2933,114.3,-64.8,12.3,-67.2,-382.5,-113.4,-903.3,0,0,7728,0,177,0,
4.2967,115.8,-64.8,10.5,-70.5,-380.7,-116.4,-907.8,0,0,7734,0,178,0,
4.3000,115.5,-69.6,7.5,-70.5,-380.4,-112.5,-908.1,0,0,7740,0,179,0,
4.3033,109.2,-72.6,2.1,-74.1,-384.0,-118.2,-909.9,0,0,7746,0,180,0,
4.3067,107.7,-60.0,5.4,-73.2,-380.4,-116.7,-900.6,0,0,7752,0,181,0,
4.3100,114.0,-62.1,9.0,-72.6,-381.0,-117.3,-904.8,0,0,7758,0,182,0,
4.3133,104.7,-64.8,2.7,-72.9,-380.4,-121.2,-902.7,0,0,7764,0,183,0,
4.3167,97.5,-59.4,6.6,-70.5,-385.8,-125.1,-909.0,0,0,7770,0,184,0,
4.3200,105.3,-60.3,2.7,-72.3,-384.6,-124.2,-900.6,0,0,7776,0,185,0,
4.3233,105.9,-66.9,8.4,-70.8,-385.5,-128.7,-904.5,0,0,7782,0,186,0,
4.3267,102.6,-53.4,7.8,-68.4,-383.4,-126.0,-908.1,0,0,7788,0,187,0,
4.3300,100.5,-57.0,4.2,-72.6,-383.1,-125.7,-909.3,0,0,7794,0,188,0,
4.3333,105.3,-57.6,14.7,-67.8,-379.8,-118.5,-898.2,0,0,7800,0,189,0,
4.3367,107.4,-59.7,11.4,-69.0,-383.4,-117.0,-902.1,0,0,7806,0,190,0,
4.3400,107.4,-65.4,10.2,-67.2,-381.3,-118.8,-909.0,0,0,7812,0,191,0,
4.3433,109.2,-63.0,9.3,-67.8,-381.3,-115.8,-901.8,0,0,7818,0,192,0,
4.3467,107.1,-57.3,8.1,-68.4,-378.3,-120.0,-898.8,0,0,7824,0,193,0,
4.3500,102.6,-58.8,5.4,-66.3,-375.6,-126.9,-905.7,0,0,7830,0,194,0,
4.3533,97.2,-58.2,2.7,-72.6,-363.6,-134.1,-914.7,0,0,7836,0,195,0,
4.3567,112.8,-54.0,12.9,-64.2,-394.8,-108.9,-902.4,0,0,7842,0,196,0,
4.3600,99.0,-60.6,6.0,-71.4,-383.1,-120.0,-918.9,0,0,7848,0,197,0,
4.3633,108.9,-51.3,7.5,-69.9,-380.4,-111.0,-902.4,0,0,7854,0,198,0,
4.3667,98.7,-68.7,3.0,-74.1,-384.3,-120.3,-923.4,0,0,7860,0,199,0,
4.3700,99.0,-61.8,2.7,-73.5,-381.3,-118.8,-906.3,0,0,7866,0,200,0,
4.3733,98.4,-59.7,1.5,-74.4,-381.3,-123.6,-907.8,0,0,7872,0,201,0,
4.3767,106.2,-61.2,3.9,-72.6,-379.8,-119.4,-892.5,0,0,7878,0,202,0,
4.3800,107.7,-60.9,3.6,-67.8,-380.4,-117.6,-893.1,0,0,7884,0,203,0,
4.3833,102.9,-60.6,7.8,-67.2,-374.7,-116.7,-897.6,0,0,7890,0,204,0,
4.3867,98.1,-66.0,2.1,-69.3,-378.6,-119.1,-914.7,0,0,7896,0,205,0,
4.3900,103.8,-69.3,-1.8,-69.3,-373.8,-117.0,-918.6,0,0,7902,0,206,0,
4.3933,95.7,-69.6,-1.2,-72.6,-379.8,-117.6,-910.8,0,0,7908,0,207,0,
4.3967,100.2,-56.4,3.3,-67.5,-374.7,-121.2,-902.7,0,0,7914,0,208,0,
4.4000,102.6,-55.8,4.5,-66.3,-371.4,-123.9,-895.5,0,0,7920,0,209,0,
4.4033,93.3,-63.3,-4.5,-75.6,-356.4,-137.1,-911.7,0,0,7926,0,210,0,
4.4067,114.3,-42.9,18.6,-61.2,-382.5,-98.4,-888.0,0,0,7932,0,211,0,
4.4100,104.4,-53.7,10.5,-63.3,-373.8,-110.1,-899.7,0,0,7938,0,212,0,
4.4133,107.7,-57.3,4.2,-73.5,-375.0,-108.9,-904.8,0,0,7944,0,213,0,
4.4167,108.3,-58.2,2.1,-76.5,-371.7,-109.2,-907.8,0,0,7950,0,214,0,
4.4200,104.7,-70.5,-3.3,-74.4,-374.1,-111.6,-913.5,0,0,7956,0,215,0,
4.4233,103.8,-69.6,-2.7,-73.2,-371.7,-115.5,-903.9,0,0,7962,0,216,0,
4.4267,100.2,-69.9,-8.4,-77.1,-375.6,-116.1,-902.1,0,0,7968,0,217,0,
4.4300,105.0,-66.6,-0.9,-74.7,-374.7,-109.5,-904.2,0,0,7974,0,218,0,
4.4333,104.4,-68.1,-1.8,-75.3,-372.3,-110.4,-901.5,0,0,7980,0,219,0,
4.4367,104.4,-68.7,1.5,-71.4,-369.9,-112.5,-900.9,0,0,7986,0,220,0,
4.4400,107.4,-65.1,-0.9,-72.0,-372.3,-116.7,-899.1,0,0,7992,0,221,0,
4.4433,110.7,-69.0,4.8,-69.9,-370.5,-111.6,-887.7,0,0,7998,0,222,0,
4.4467,106.2,-72.6,3.3,-70.8,-369.3,-111.9,-891.3,0,0,8004,0,223,0,
4.4500,106.8,-66.6,-1.2,-72.9,-371.1,-110.1,-891.6,0,0,8010,0,224,0,
4.4533,111.3,-61.5,-0.3,-71.7,-369.0,-111.9,-891.0,0,0,8016,0,225,0,
4.4567,112.5,-60.0,2.1,-70.5,-371.4,-113.7,-890.4,0,0,8022,0,226,0,
4.4600,115.5,-61.5,7.5,-68.4,-369.6,-117.6,-902.7,0,0,8028,0,227,0,
4.4633,115.5,-60.3,8.1,-65.7,-369.0,-118.5,-905.4,0,0,8034,0,228,0,
4.4667,114.6,-65.1,-2.4,-69.9,-370.2,-117.6,-907.5,0,0,8040,0,229,0,
4.4700,112.5,-70.2,-2.7,-65.7,-363.9,-123.3,-902.7,0,0,8046,0,230,0,
4.4733,107.1,-81.0,-6.3,-72.9,-353.1,-130.8,-912.0,0,0,8052,0,231,0,
4.4767,127.2,-65.4,10.5,-62.7,-384.0,-98.1,-897.6,0,0,8058,0,232,0,
4.4800,122.1,-64.5,3.9,-67.5,-366.3,-110.4,-908.4,0,0,8064,0,233,0,
4.4833,118.8,-66.3,5.4,-63.6,-366.9,-107.7,-909.3,0,0,8070,0,234,0,
4.4867,115.8,-69.6,0.9,-66.9,-365.4,-113.7,-896.7,0,0,8076,0,235,0,
4.4900,114.9,-72.9,-1.5,-66.9,-368.7,-108.6,-896.4,0,0,8082,0,236,0,
4.4933,120.6,-67.5,5.1,-70.5,-364.5,-111.0,-886.5,0,0,8088,0,237,0,
4.4967,119.7,-63.3,6.0,-66.9,-366.0,-113.7,-895.5,0,0,8094,0,238,0,
4.5000,120.9,-66.6,4.8,-63.3,-361.8,-107.4,-894.9,0,0,8100,0,239,0,
4.5033,120.6,-66.6,5.1,-63.6,-364.5,-107.7,-894.0,0,0,8106,0,240,0,
4.5067,114.9,-65.1,6.6,-64.2,-362.1,-105.9,-906.3,0,0,8112,0,241,0,
4.5100,107.4,-64.5,3.0,-66.0,-366.3,-114.0,-910.8,0,0,8118,0,242,0,
4.5133,108.0,-70.2,-2.7,-69.6,-365.7,-116.7,-906.9,0,0,8124,0,243,0,
4.5167,115.8,-60.9,1.5,-70.5,-367.8,-117.9,-900.3,0,0,8130,0,244,0,
4.5200,117.3,-60.3,2.4,-68.1,-363.0,-117.0,-904.8,0,0,8136,0,245,0,
4.5233,110.4,-70.8,-2.4,-70.8,-367.5,-120.0,-909.9,0,0,8142,0,246,0,
4.5267,114.6,-63.6,0.0,-68.7,-363.0,-116.7,-909.3,0,0,8148,0,247,0,
4.5300,112.8,-62.4,4.2,-66.0,-363.6,-117.0,-899.4,0,0,8154,0,248,0,
4.5333,99.6,-71.1,-4.5,-74.1,-343.8,-136.2,-911.7,0,0,8160,0,249,0,
4.5367,118.8,-57.9,6.3,-66.3,-371.1,-105.9,-896.7,0,0,8166,0,250,0,
4.5400,113.7,-67.2,3.0,-67.8,-367.8,-114.3,-907.8,0,0,8172,0,251,0,
4.5433,111.0,-62.4,6.0,-63.0,-363.9,-114.3,-906.0,0,0,8178,0,252,0,
4.5467,120.0,-55.2,9.6,-62.4,-357.6,-109.8,-889.8,0,0,8184,0,253,0,
4.5500,116.4,-61.8,5.7,-64.2,-360.6,-115.5,-887.4,0,0,8190,0,254,0,
4.5533,116.7,-64.5,5.7,-67.2,-358.8,-112.5,-890.4,0,0,8196,0,255,0,
4.5567,122.4,-63.0,10.2,-62.7,-358.8,-110.7,-899.4,0,0,8202,0,0,0,
4.5600,122.1,-54.3,8.4,-61.2,-355.2,-108.3,-894.9,0,0,8208,0,1,0,
4.5633,117.6,-52.8,5.7,-62.7,-360.0,-110.1,-891.6,0,0,8214,0,2,0,
4.5667,118.5,-50.4,8.4,-63.6,-357.3,-108.3,-892.2,0,0,8220,0,3,0,
4.5700,117.9,-57.6,2.4,-65.1,-358.8,-108.3,-894.0,0,0,8226,0,4,0,
4.5733,117.0,-60.9,6.3,-66.0,-362.4,-111.3,-897.3,0,0,8232,0,5,0,
4.5767,116.7,-62.4,2.4,-68.1,-363.3,-111.3,-900.0,0,0,8238,0,6,0,
4.5800,113.1,-56.7,6.9,-65.7,-358.8,-109.5,-900.6,0,0,8244,0,7,0,
4.5833,111.3,-60.6,3.0,-71.1,-360.0,-109.5,-897.9,0,0,8250,0,8,0,
4.5867,116.7,-57.0,8.7,-65.7,-360.9,-105.3,-893.4,0,0,8256,0,9,0,
4.5900,113.4,-46.8,9.0,-66.3,-360.9,-110.1,-906.3,0,0,8262,0,10,0,
4.5933,114.3,-51.3,10.2,-66.0,-355.8,-111.3,-905.4,0,0,8268,0,11,0,
4.5967,101.7,-61.5,3.9,-77.7,-344.7,-126.9,-907.5,0,0,8274,0,12,0,
4.6000,120.3,-49.8,14.1,-66.9,-372.9,-93.3,-878.1,0,0,8280,0,13,0,
4.6033,117.0,-60.3,7.5,-71.1,-360.9,-101.7,-888.9,0,0,8286,0,14,0,
4.6067,113.4,-60.0,6.6,-73.8,-362.4,-102.6,-887.1,0,0,8292,0,15,0,
4.6100,113.7,-63.3,3.9,-76.8,-365.1,-106.8,-890.1,0,0,8298,0,16,0,
4.6133,113.4,-58.8,2.7,-73.5,-361.5,-103.5,-892.2,0,0,8304,0,17,0,
4.6167,111.6,-68.7,-5.1,-78.3,-364.2,-108.6,-899.4,0,0,8310,0,18,0,
4.6200,117.3,-56.1,2.7,-71.4,-358.2,-106.5,-893.1,0,0,8316,0,19,0,
4.6233,122.7,-52.2,8.7,-70.8,-357.3,-105.3,-894.6,0,0,8322,0,20,0,
4.6267,117.6,-54.9,8.1,-72.0,-357.9,-105.6,-911.4,0,0,8328,0,21,0,
4.6300,114.3,-58.5,6.3,-71.4,-359.7,-108.3,-905.4,0,0,8334,0,22,0,
4.6333,120.3,-58.2,7.8,-71.4,-359.7,-107.4,-896.1,0,0,8340,0,23,0,
4.6367,120.6,-63.6,6.6,-73.8,-360.9,-110.7,-893.7,0,0,8346,0,24,0,
4.6400,124.8,-59.7,6.0,-68.7,-361.5,-108.3,-891.6,0,0,8352,0,25,0,
4.6433,120.6,-65.7,-0.9,-74.4,-357.9,-104.4,-894.0,0,0,8358,0,26,0,
4.6467,124.5,-61.5,0.0,-73.5,-359.7,-108.0,-915.9,0,0,8364,0,27,0,
4.6500,125.7,-50.1,0.6,-69.0,-355.5,-103.5,-904.8,0,0,8370,0,28,0,
4.6533,116.4,-72.0,-7.5,-74.1,-347.7,-119.1,-910.5,0,0,8376,0,29,0,
4.6567,107.7,-79.5,-8.1,-78.9,-351.3,-118.2,-902.4,0,0,8382,0,30,0,
4.6600,126.3,-59.4,3.6,-67.2,-369.0,-89.1,-885.6,0,0,8388,0,31,0,
4.6633,118.5,-73.8,-3.6,-74.4,-359.4,-106.8,-903.0,0,0,8394,0,32,0,
4.6667,121.8,-64.5,-1.2,-69.6,-361.5,-103.2,-913.2,0,0,8400,0,33,0,
4.6700,116.7,-65.1,-0.9,-69.3,-361.5,-105.0,-910.8,0,0,8406,0,34,0,
4.6733,121.5,-66.9,-1.2,-67.8,-357.0,-98.4,-904.2,0,0,8412,0,35,0,
4.6767,117.9,-70.8,-3.0,-68.4,-359.7,-102.9,-898.8,0,0,8418,0,36,0,
4.6800,120.3,-62.1,-7.8,-69.3,-359.4,-102.9,-902.1,0,0,8424,0,37,0,
4.6833,114.6,-63.3,-7.2,-69.3,-360.9,-108.3,-911.4,0,0,8430,0,38,0,
4.6867,114.6,-63.6,0.6,-66.6,-358.8,-106.5,-908.1,0,0,8436,0,39,0,
4.6900,117.0,-66.9,-2.7,-66.9,-361.5,-105.3,-909.0,0,0,8442,0,40,0,
4.6933,118.2,-64.8,-3.3,-66.9,-358.8,-105.3,-908.1,0,0,8448,0,41,0,
4.6967,119.1,-64.5,-0.9,-67.2,-358.5,-103.8,-910.8,0,0,8454,0,42,0,
4.7000,120.9,-61.8,0.0,-68.7,-357.3,-99.6,-901.2,0,0,8460,0,43,0,
4.7033,117.6,-58.8,0.0,-67.2,-358.2,-104.4,-912.0,0,0,8466,0,44,0,
4.7067,118.8,-66.6,0.9,-60.9,-357.0,-102.0,-922.2,0,0,8472,0,45,0,
4.7100,117.9,-57.9,2.1,-63.3,-355.5,-101.7,-901.5,0,0,8478,0,46,0,
4.7133,120.6,-58.8,3.9,-61.2,-355.5,-103.2,-888.9,0,0,8484,0,47,0,
4.7167,113.1,-70.2,-5.7,-68.7,-339.0,-117.9,-897.9,0,0,8490,0,48,0,
4.7200,122.4,-69.6,3.6,-63.3,-354.3,-96.3,-889.2,0,0,8496,0,49,0,
4.7233,127.5,-56.7,6.3,-58.8,-367.8,-90.3,-889.8,0,0,8502,0,50,0,
4.7267,123.3,-62.1,2.4,-63.3,-360.9,-100.2,-897.6,0,0,8508,0,51,0,
4.7300,125.1,-61.2,10.8,-61.5,-363.3,-102.9,-901.8,0,0,8514,0,52,0,
4.7333,122.4,-58.2,11.7,-58.8,-356.1,-97.2,-899.1,0,0,8520,0,53,0,
4.7367,110.4,-63.3,1.8,-68.4,-364.2,-108.3,-903.9,0,0,8526,0,54,0,
4.7400,117.9,-60.9,9.6,-62.1,-359.1,-103.2,-900.3,0,0,8532,0,55,0,
4.7433,116.4,-57.6,8.1,-64.2,-359.4,-112.5,-911.7,0,0,8538,0,56,0,
4.7467,115.5,-56.7,6.9,-66.3,-363.0,-108.6,-909.0,0,0,8544,0,57,0,
4.7500,125.7,-46.8,8.1,-62.7,-357.9,-99.6,-897.6,0,0,8550,0,58,0,
4.7533,118.8,-60.6,3.3,-64.2,-358.5,-105.0,-898.8,0,0,8556,0,59,0,
4.7567,121.8,-52.2,3.6,-64.8,-359.4,-104.7,-898.5,0,0,8562,0,60,0,
4.7600,123.0,-48.6,7.5,-65.1,-358.5,-102.0,-892.8,0,0,8568,0,61,0,
4.7633,124.5,-47.4,7.5,-62.4,-358.2,-103.8,-903.6,0,0,8574,0,62,0,
4.7667,125.4,-48.3,9.9,-63.3,-360.6,-100.8,-899.4,0,0,8580,0,63,0,
4.7700,128.7,-53.7,12.0,-58.2,-358.2,-99.3,-902.4,0,0,8586,0,64,0,
4.7733,129.6,-54.6,9.0,-58.8,-357.9,-100.2,-899.7,0,0,8592,0,65,0,
4.7767,123.9,-56.7,7.5,-64.5,-358.8,-104.4,-901.2,0,0,8598,0,66,0,
4.7800,125.1,-53.7,12.6,-63.9,-360.6,-102.0,-900.0,0,0,8604,0,67,0,
4.7833,125.4,-45.6,18.3,-58.2,-358.5,-99.6,-891.6,0,0,8610,0,68,0,
4.7867,114.0,-47.4,7.5,-65.1,-351.3,-117.3,-898.2,0,0,8616,0,69,0,
4.7900,106.5,-61.2,-2.4,-70.5,-350.4,-123.3,-918.3,0,0,8622,0,70,0,
4.7933,134.4,-42.9,18.0,-56.7,-371.4,-87.6,-889.8,0,0,8628,0,71,0,
4.7967,124.2,-51.3,7.5,-63.3,-360.6,-104.4,-908.4,0,0,8634,0,72,0,
4.8000,121.2,-54.3,6.9,-61.8,-361.8,-104.7,-902.7,0,0,8640,0,73,0,
4.8033,122.4,-52.2,5.4,-56.1,-356.4,-102.3,-901.5,0,0,8646,0,74,0,
4.8067,127.5,-56.4,3.9,-59.4,-361.5,-104.4,-900.6,0,0,8652,0,75,0,
4.8100,130.2,-47.4,1.2,-66.0,-362.7,-105.0,-901.5,0,0,8658,0,76,0,
4.8133,132.3,-43.5,4.5,-63.9,-360.0,-105.0,-909.0,0,0,8664,0,77,0,
4.8167,133.2,-46.2,2.4,-64.8,-361.8,-107.4,-907.2,0,0,8670,0,78,0,
4.8200,127.2,-50.1,4.2,-64.2,-359.4,-103.2,-906.0,0,0,8676,0,79,0,
4.8233,128.4,-43.2,6.6,-62.7,-359.1,-99.9,-909.9,0,0,8682,0,80,0,
4.8267,134.4,-47.1,9.0,-62.4,-357.3,-99.0,-907.2,0,0,8688,0,81,0,
4.8300,131.1,-50.1,6.6,-65.1,-358.8,-102.9,-905.1,0,0,8694,0,82,0,
4.8333,128.1,-44.4,6.0,-63.6,-357.0,-100.5,-905.4,0,0,8700,0,83,0,
4.8367,117.3,-47.4,5.7,-65.4,-356.4,-104.4,-905.1,0,0,8706,0,84,0,
4.8400,124.5,-43.8,7.5,-60.6,-356.4,-98.7,-895.8,0,0,8712,0,85,0,
4.8433,122.7,-51.6,2.4,-62.4,-359.1,-102.0,-903.0,0,0,8718,0,86,0,
4.8467,126.3,-51.3,0.9,-62.7,-357.3,-103.2,-900.3,0,0,8724,0,87,0,
4.8500,123.9,-50.1,6.6,-65.4,-360.0,-106.8,-899.4,0,0,8730,0,88,0,
4.8533,125.4,-48.9,4.8,-63.6,-360.3,-103.5,-901.8,0,0,8736,0,89,0,
4.8567,116.4,-60.0,-8.4,-71.7,-348.9,-121.2,-916.5,0,0,8742,0,90,0,
4.8600,118.2,-50.7,-1.5,-64.2,-349.8,-109.5,-917.7,0,0,8748,0,91,0,
4.8633,129.6,-45.6,9.0,-56.1,-371.7,-88.2,-899.1,0,0,8754,0,92,0,
4.8667,125.7,-58.2,8.7,-60.6,-355.8,-97.5,-901.8,0,0,8760,0,93,0,
4.8700,131.1,-49.8,7.8,-63.9,-360.9,-98.1,-906.0,0,0,8766,0,94,0,
4.8733,131.7,-40.5,8.7,-63.0,-357.9,-99.9,-897.0,0,0,8772,0,95,0,
4.8767,134.4,-42.0,13.2,-61.5,-353.4,-91.5,-889.2,0,0,8778,0,96,0,
4.8800,125.1,-42.9,12.9,-63.6,-356.7,-100.2,-887.7,0,0,8784,0,97,0,
4.8833,127.5,-37.2,12.9,-65.1,-354.6,-92.7,-895.5,0,0,8790,0,98,0,
4.8867,126.6,-36.3,5.4,-64.8,-355.8,-99.0,-898.8,0,0,8796,0,99,0,
4.8900,124.8,-41.1,6.9,-61.2,-356.7,-97.5,-901.8,0,0,8802,0,100,0,
4.8933,120.3,-50.4,7.2,-63.6,-358.8,-100.2,-904.2,0,0,8808,0,101,0,
4.8967,119.1,-51.3,3.3,-63.6,-360.6,-98.1,-909.6,0,0,8814,0,102,0,
4.9000,119.1,-48.9,2.7,-65.7,-357.6,-98.1,-909.0,0,0,8820,0,103,0,
4.9033,121.2,-42.9,6.6,-62.7,-354.6,-97.2,-903.0,0,0,8826,0,104,0,
4.9067,121.5,-39.9,8.1,-61.2,-357.3,-100.2,-905.1,0,0,8832,0,105,0,
4.9100,120.9,-45.9,4.2,-66.9,-363.6,-108.3,-903.6,0,0,8838,0,106,0,
4.9133,120.9,-45.6,8.7,-63.3,-359.4,-104.4,-900.3,0,0,8844,0,107,0,
4.9167,117.6,-47.7,4.2,-68.4,-360.6,-112.5,-897.0,0,0,8850,0,108,0,
4.9200,111.6,-60.3,-4.5,-69.3,-344.1,-122.1,-906.6,0,0,8856,0,109,0,
4.9233,119.7,-49.5,8.1,-59.7,-373.2,-89.7,-894.3,0,0,8862,0,110,0,
4.9267,120.3,-42.6,6.3,-64.2,-363.0,-95.4,-897.0,0,0,8868,0,111,0,
4.9300,121.5,-45.6,2.4,-67.8,-362.4,-99.3,-899.7,0,0,8874,0,112,0,
4.9333,117.3,-51.6,0.0,-68.1,-362.7,-103.2,-904.5,0,0,8880,0,113,0,
4.9367,116.7,-58.2,-1.8,-69.9,-363.6,-101.4,-907.8,0,0,8886,0,114,0,
4.9400,126.0,-51.0,3.0,-67.8,-358.2,-93.6,-900.6,0,0,8892,0,115,0,
4.9433,122.4,-55.2,-2.7,-70.8,-361.2,-94.5,-899.4,0,0,8898,0,116,0,
4.9467,123.9,-51.3,2.7,-68.1,-360.3,-98.4,-900.3,0,0,8904,0,117,0,
4.9500,117.3,-55.5,-1.2,-68.4,-360.0,-97.8,-900.9,0,0,8910,0,118,0,
4.9533,118.2,-56.1,-1.2,-69.9,-358.5,-99.3,-899.7,0,0,8916,0,119,0,
4.9567,115.5,-57.3,-2.7,-72.0,-360.0,-104.4,-903.0,0,0,8922,0,120,0,
4.9600,115.2,-56.4,-6.0,-68.4,-360.6,-106.8,-914.1,0,0,8928,0,121,0,
4.9633,112.2,-59.4,-7.8,-69.3,-360.9,-110.4,-915.6,0,0,8934,0,122,0,
4.9667,109.5,-60.6,-8.1,-66.9,-359.4,-109.5,-912.9,0,0,8940,0,123,0,
4.9700,113.1,-57.9,-6.9,-70.2,-362.1,-105.3,-909.3,0,0,8946,0,124,0,
4.9733,117.9,-60.3,-3.9,-67.2,-360.3,-106.8,-912.6,0,0,8952,0,125,0,
4.9767,116.7,-60.9,-5.1,-70.5,-363.3,-110.1,-913.2,0,0,8958,0,126,0,
4.9800,117.0,-64.5,-7.8,-68.7,-361.8,-111.3,-912.0,0,0,8964,0,127,0,
4.9833,113.7,-65.7,-1.8,-71.7,-360.9,-111.3,-920.1,0,0,8970,0,128,0,
4.9867,115.5,-64.5,-7.5,-73.5,-364.5,-113.4,-915.0,0,0,8976,0,129,0,
4.9900,102.0,-64.2,-12.6,-81.0,-351.9,-137.1,-914.1,0,0,8982,0,130,0,
4.9933,110.4,-54.9,-0.3,-68.7,-368.4,-114.0,-902.7,0,0,8988,0,131,0,
4.9967,122.1,-57.0,2.4,-67.8,-373.8,-103.8,-900.0,0,0,8994,0,132,0,
5.0000,118.5,-60.3,-5.4,-71.1,-366.6,-113.1,-903.6,0,0,9000,0,133,0,
5.0033,120.0,-51.9,-1.2,-71.4,-363.3,-108.6,-897.9,0,0,9006,0,134,0,
5.0067,120.0,-55.2,-4.5,-74.7,-368.1,-115.2,-894.9,0,0,9012,0,135,0,
5.0100,113.7,-63.9,-8.4,-75.6,-366.6,-114.6,-896.7,0,0,9018,0,136,0,
5.0133,111.9,-62.7,-5.7,-69.6,-367.2,-116.7,-905.1,0,0,9024,0,137,0,
5.0167,110.1,-60.3,-4.8,-72.3,-365.4,-119.1,-915.9,0,0,9030,0,138,0,
5.0200,114.6,-59.4,-1.2,-72.0,-364.5,-121.2,-912.6,0,0,9036,0,139,0,
5.0233,109.5,-61.5,-2.1,-73.8,-363.6,-121.2,-908.7,0,0,9042,0,140,0,
5.0267,119.1,-60.3,-0.3,-65.7,-360.3,-116.7,-892.5,0,0,9048,0,141,0,
5.0300,117.6,-55.5,2.1,-66.3,-359.1,-112.8,-894.3,0,0,9054,0,142,0,
5.0333,121.5,-51.3,2.1,-67.5,-358.8,-111.9,-892.8,0,0,9060,0,143,0,
5.0367,118.2,-49.8,2.1,-65.4,-359.4,-107.7,-888.6,0,0,9066,0,144,0,
5.0400,107.4,-59.1,-6.9,-70.5,-347.1,-131.4,-905.4,0,0,9072,0,145,0,
5.0433,122.7,-58.2,1.8,-68.1,-348.6,-114.9,-891.9,0,0,9078,0,146,0,
5.0467,132.9,-61.2,8.7,-60.0,-368.7,-94.5,-875.4,0,0,9084,0,147,0,
5.0500,125.7,-62.4,1.5,-65.4,-356.7,-107.4,-885.9,0,0,9090,0,148,0,
5.0533,122.1,-64.2,-0.3,-66.6,-361.5,-110.1,-888.0,0,0,9096,0,149,0,
5.0567,122.4,-61.8,-5.7,-68.4,-361.8,-111.6,-881.1,0,0,9102,0,150,0,
5.0600,118.5,-69.0,-4.8,-66.9,-361.8,-113.4,-885.6,0,0,9108,0,151,0,
5.0633,121.5,-65.7,-4.8,-66.9,-359.4,-112.8,-884.1,0,0,9114,0,152,0,
5.0667,123.9,-62.7,-3.0,-69.3,-358.8,-113.7,-894.3,0,0,9120,0,153,0,
5.0700,127.8,-57.0,1.2,-66.3,-355.8,-108.9,-881.4,0,0,9126,0,154,0,
5.0733,119.4,-66.3,-1.5,-69.0,-359.1,-113.4,-885.0,0,0,9132,0,155,0,
5.0767,122.7,-63.9,-0.9,-71.1,-354.9,-110.1,-883.5,0,0,9138,0,156,0,
5.0800,120.6,-68.4,-2.4,-67.5,-356.1,-115.5,-882.6,0,0,9144,0,157,0,
5.0833,122.7,-64.5,2.4,-66.0,-352.8,-109.2,-887.1,0,0,9150,0,158,0,
5.0867,123.3,-61.8,2.4,-63.3,-353.7,-111.3,-894.0,0,0,9156,0,159,0,
5.0900,123.9,-61.5,-2.4,-66.6,-351.9,-107.7,-886.8,0,0,9162,0,160,0,
5.0933,122.4,-60.0,-0.6,-65.4,-354.0,-108.9,-888.0,0,0,9168,0,161,0,
5.0967,124.5,-63.6,0.9,-64.2,-354.6,-111.6,-883.5,0,0,9174,0,162,0,
5.1000,108.9,-70.8,-8.7,-70.5,-338.4,-131.1,-899.7,0,0,9180,0,163,0,
5.1033,128.1,-65.4,6.9,-62.1,-360.3,-103.8,-884.1,0,0,9186,0,164,0,
5.1067,129.6,-60.3,6.3,-62.7,-361.8,-104.4,-891.9,0,0,9192,0,165,0,
5.1100,121.2,-55.8,1.2,-65.1,-357.6,-111.9,-897.3,0,0,9198,0,166,0,
5.1133,117.0,-62.1,0.6,-66.9,-354.9,-112.2,-897.3,0,0,9204,0,167,0,
5.1167,111.9,-65.1,-1.2,-69.0,-361.2,-117.0,-891.9,0,0,9210,0,168,0,
5.1200,116.7,-63.3,-0.3,-61.8,-356.1,-113.1,-886.2,0,0,9216,0,169,0,
5.1233,117.0,-62.4,3.0,-62.7,-357.0,-108.3,-887.4,0,0,9222,0,170,0,
5.1267,111.6,-67.5,1.8,-63.9,-358.5,-110.4,-882.9,0,0,9228,0,171,0,
5.1300,112.8,-70.8,4.8,-62.7,-353.4,-107.7,-882.3,0,0,9234,0,172,0,
5.1333,112.5,-63.9,4.8,-60.6,-354.9,-106.5,-885.9,0,0,9240,0,173,0,
5.1367,112.5,-68.7,7.2,-61.8,-352.8,-112.2,-889.2,0,0,9246,0,174,0,
5.1400,111.3,-59.7,7.8,-62.7,-352.5,-111.3,-885.3,0,0,9252,0,175,0,
5.1433,111.0,-61.2,5.4,-63.6,-354.3,-110.7,-884.7,0,0,9258,0,176,0,
5.1467,116.1,-52.8,8.4,-60.0,-349.8,-109.5,-889.8,0,0,9264,0,177,0,
5.1500,120.3,-57.0,11.4,-57.6,-345.9,-106.8,-884.4,0,0,9270,0,178,0,
5.1533,116.1,-53.4,12.6,-58.8,-350.4,-107.7,-882.9,0,0,9276,0,179,0,
5.1567,108.3,-64.5,3.3,-66.9,-343.8,-125.7,-894.0,0,0,9282,0,180,0,
5.1600,106.8,-67.5,-3.9,-69.0,-336.3,-120.6,-891.0,0,0,9288,0,181,0,
5.1633,122.1,-54.0,13.5,-59.4,-362.4,-95.1,-875.4,0,0,9294,0,182,0,
5.1667,110.4,-62.4,6.6,-65.4,-347.7,-108.6,-893.4,0,0,9300,0,183,0,
5.1700,111.6,-60.3,9.0,-67.8,-351.6,-105.3,-885.9,0,0,9306,0,184,0,
5.1733,108.0,-63.0,3.9,-66.9,-349.5,-111.6,-886.5,0,0,9312,0,185,0,
5.1767,107.1,-53.4,6.3,-67.2,-349.2,-107.7,-882.0,0,0,9318,0,186,0,
5.1800,108.3,-57.0,8.4,-65.7,-346.5,-107.4,-888.3,0,0,9324,0,187,0,
5.1833,104.7,-61.2,6.6,-69.0,-348.9,-113.7,-898.5,0,0,9330,0,188,0,
5.1867,122.4,-52.2,15.0,-64.8,-347.7,-111.0,-882.6,0,0,9336,0,189,0,
5.1900,113.1,-58.8,9.9,-64.5,-350.4,-115.2,-882.9,0,0,9342,0,190,0,
5.1933,115.2,-49.8,15.0,-62.7,-348.9,-113.1,-882.9,0,0,9348,0,191,0,
5.1967,109.2,-56.1,12.0,-65.4,-351.9,-113.4,-884.1,0,0,9354,0,192,0,
5.2000,106.8,-63.0,7.8,-62.1,-351.0,-121.2,-894.0,0,0,9360,0,193,0,
5.2033,106.2,-62.1,12.3,-59.1,-355.5,-120.6,-894.3,0,0,9366,0,194,0,
5.2067,107.7,-62.7,10.2,-62.7,-353.7,-124.2,-896.7,0,0,9372,0,195,0,
5.2100,103.5,-72.3,5.1,-66.0,-353.1,-129.3,-903.6,0,0,9378,0,196,0,
5.2133,100.8,-68.7,-0.6,-71.1,-336.9,-140.1,-911.1,0,0,9384,0,197,0,
5.2167,117.6,-53.1,17.4,-58.5,-365.7,-108.0,-885.0,0,0,9390,0,198,0,
5.2200,109.8,-55.8,8.7,-64.2,-355.2,-126.0,-893.4,0,0,9396,0,199,0,
5.2233,111.6,-59.4,10.5,-61.2,-351.9,-116.4,-898.5,0,0,9402,0,200,0,
5.2267,106.2,-63.0,1.8,-68.4,-347.4,-124.8,-898.2,0,0,9408,0,201,0,
5.2300,111.9,-60.3,7.5,-65.1,-351.9,-117.3,-894.0,0,0,9414,0,202,0,
5.2333,113.4,-60.6,5.1,-69.3,-349.5,-117.9,-892.2,0,0,9420,0,203,0,
5.2367,115.2,-62.7,3.9,-66.0,-350.1,-117.0,-892.5,0,0,9426,0,204,0,
5.2400,115.2,-63.9,3.6,-68.7,-349.8,-116.1,-899.1,0,0,9432,0,205,0,
5.2433,103.2,-75.0,-0.6,-74.4,-352.8,-122.4,-917.4,0,0,9438,0,206,0,
5.2467,98.7,-75.3,-2.1,-72.6,-354.3,-123.6,-911.7,0,0,9444,0,207,0,
5.2500,111.0,-72.6,1.2,-71.4,-351.9,-114.6,-892.8,0,0,9450,0,208,0,
5.2533,126.6,-54.0,8.4,-67.2,-346.8,-105.3,-879.6,0,0,9456,0,209,0,
5.2567,117.0,-69.9,2.4,-72.6,-352.5,-118.2,-890.4,0,0,9462,0,210,0,
5.2600,118.5,-72.6,-1.8,-75.9,-351.6,-116.7,-893.1,0,0,9468,0,211,0,
5.2633,123.6,-67.2,-1.8,-75.3,-349.8,-109.2,-880.8,0,0,9474,0,212,0,
5.2667,118.2,-78.9,-6.9,-79.2,-352.5,-111.0,-884.4,0,0,9480,0,213,0,
5.2700,115.8,-84.6,-10.2,-79.8,-350.4,-111.3,-884.1,0,0,9486,0,214,0,
5.2733,127.2,-74.7,-4.2,-76.2,-348.6,-104.1,-872.7,0,0,9492,0,215,0,
5.2767,129.6,-75.6,-6.6,-74.4,-342.0,-103.8,-875.4,0,0,9498,0,216,0,
5.2800,126.6,-73.8,-6.6,-74.4,-339.0,-108.6,-864.9,0,0,9504,0,217,0,
5.2833,121.5,-82.2,-16.2,-78.9,-328.8,-122.7,-882.9,0,0,9510,0,218,0,
5.2867,143.7,-67.2,3.0,-70.2,-361.2,-90.6,-856.2,0,0,9516,0,219,0,
5.2900,130.5,-76.2,-5.4,-69.9,-348.6,-105.9,-867.9,0,0,9522,0,220,0,
5.2933,129.9,-81.3,-5.7,-70.5,-351.0,-106.2,-864.0,0,0,9528,0,221,0,
5.2967,126.3,-89.4,-9.6,-72.3,-348.3,-113.1,-874.8,0,0,9534,0,222,0,
5.3000,122.1,-86.4,-9.6,-71.7,-348.9,-111.9,-885.0,0,0,9540,0,223,0,
5.3033,117.3,-90.9,-10.2,-73.2,-346.8,-112.5,-882.3,0,0,9546,0,224,0,
5.3067,123.6,-88.2,-8.1,-72.9,-346.8,-109.5,-877.2,0,0,9552,0,225,0,
5.3100,120.9,-87.6,-12.9,-76.8,-350.1,-112.5,-885.3,0,0,9558,0,226,0,
5.3133,122.1,-89.1,-15.6,-74.7,-347.4,-111.0,-882.9,0,0,9564,0,227,0,
5.3167,113.4,-94.5,-16.2,-77.1,-347.4,-114.3,-890.7,0,0,9570,0,228,0,
5.3200,114.9,-96.0,-20.4,-77.1,-348.0,-111.0,-888.0,0,0,9576,0,229,0,
5.3233,120.0,-84.9,-12.6,-73.2,-351.0,-112.2,-881.4,0,0,9582,0,230,0,
5.3267,118.5,-94.5,-11.4,-72.6,-349.2,-111.0,-885.0,0,0,9588,0,231,0,
5.3300,116.4,-94.2,-12.9,-73.8,-352.5,-113.7,-894.9,0,0,9594,0,232,0,
5.3333,115.2,-89.7,-16.2,-72.3,-346.2,-109.5,-879.0,0,0,9600,0,233,0,
5.3367,112.2,-93.6,-18.0,-73.8,-346.2,-115.8,-882.9,0,0,9606,0,234,0,
5.3400,100.5,-103.2,-25.5,-79.8,-334.2,-131.1,-897.9,0,0,9612,0,235,0,
5.3433,118.2,-75.9,-7.2,-65.4,-359.7,-99.3,-877.8,0,0,9618,0,236,0,
5.3467,102.6,-90.6,-18.9,-78.6,-352.8,-114.6,-895.5,0,0,9624,0,237,0,
5.3500,107.7,-101.1,-18.6,-75.6,-350.4,-111.9,-890.1,0,0,9630,0,238,0,
5.3533,111.0,-88.8,-16.5,-76.2,-349.2,-107.1,-891.6,0,0,9636,0,239,0,
5.3567,108.3,-79.2,-7.8,-70.5,-350.4,-110.4,-888.3,0,0,9642,0,240,0,
5.3600,105.3,-84.0,-14.4,-74.7,-349.5,-114.9,-895.5,0,0,9648,0,241,0,
5.3633,103.5,-90.0,-15.6,-77.1,-350.4,-116.1,-888.6,0,0,9654,0,242,0,
5.3667,111.6,-83.7,-10.8,-70.2,-346.5,-113.4,-878.1,0,0,9660,0,243,0,
5.3700,111.3,-87.3,-12.3,-70.2,-346.8,-114.6,-881.4,0,0,9666,0,244,0,
5.3733,115.2,-76.5,-6.0,-72.9,-340.8,-108.9,-876.3,0,0,9672,0,245,0,
5.3767,111.0,-81.3,-8.7,-76.2,-343.5,-114.3,-881.1,0,0,9678,0,246,0,
5.3800,115.8,-83.7,-4.8,-71.1,-342.0,-111.6,-884.4,0,0,9684,0,247,0,
5.3833,111.3,-92.4,-9.0,-75.9,-345.6,-113.1,-889.8,0,0,9690,0,248,0,
5.3867,114.9,-95.7,-5.4,-73.2,-342.9,-109.5,-888.6,0,0,9696,0,249,0,
5.3900,113.4,-85.5,-5.1,-73.8,-344.7,-113.4,-891.9,0,0,9702,0,250,0,
5.3933,108.9,-85.5,-7.2,-73.5,-342.3,-111.3,-887.4,0,0,9708,0,251,0,
5.3967,117.3,-80.4,1.2,-69.9,-344.4,-110.1,-883.2,0,0,9714,0,252,0,
5.4000,119.1,-84.0,0.9,-69.3,-340.8,-108.0,-876.9,0,0,9720,0,253,0,
5.4033,120.0,-73.2,2.4,-67.5,-343.8,-103.2,-880.2,0,0,9726,0,254,0,
5.4067,118.5,-75.0,0.6,-68.1,-345.0,-104.4,-883.5,0,0,9732,0,255,0,
5.4100,115.5,-70.5,1.5,-72.0,-343.8,-110.4,-888.6,0,0,9738,0,0,0,
5.4133,107.1,-83.7,-7.5,-75.6,-330.0,-126.9,-900.6,0,0,9744,0,1,0,
5.4167,131.7,-65.4,7.8,-62.4,-354.0,-87.3,-872.7,0,0,9750,0,2,0,
5.4200,117.6,-72.9,3.3,-66.6,-345.3,-99.6,-883.8,0,0,9756,0,3,0,
5.4233,116.4,-79.2,2.1,-64.8,-348.3,-102.6,-885.9,0,0,9762,0,4,0,
5.4267,113.1,-79.2,3.3,-65.4,-343.8,-109.8,-884.4,0,0,9768,0,5,0,
5.4300,130.2,-64.5,6.6,-61.5,-341.7,-101.4,-884.1,0,0,9774,0,6,0,
5.4333,120.0,-69.0,4.8,-67.8,-339.9,-104.4,-888.9,0,0,9780,0,7,0,
5.4367,117.9,-83.4,1.5,-69.9,-342.6,-102.6,-890.7,0,0,9786,0,8,0,
5.4400,120.0,-83.4,-3.0,-74.1,-342.6,-105.9,-896.1,0,0,9792,0,9,0,
5.4433,130.2,-72.6,0.9,-69.9,-339.6,-100.5,-878.1,0,0,9798,0,10,0,
5.4467,127.8,-74.4,1.2,-71.4,-339.9,-101.4,-875.7,0,0,9804,0,11,0,
5.4500,126.6,-81.6,4.5,-68.1,-336.3,-99.6,-885.3,0,0,9810,0,12,0,
5.4533,119.1,-70.8,2.7,-69.6,-341.7,-102.0,-892.5,0,0,9816,0,13,0,
5.4567,120.9,-71.7,0.6,-71.1,-341.7,-102.9,-889.2,0,0,9822,0,14,0,
5.4600,133.2,-60.6,-1.5,-69.9,-340.2,-98.4,-876.3,0,0,9828,0,15,0,
5.4633,125.4,-68.4,-4.2,-75.0,-341.7,-102.6,-883.2,0,0,9834,0,16,0,
5.4667,133.2,-65.7,-1.2,-71.1,-337.8,-98.4,-877.2,0,0,9840,0,17,0,
5.4700,132.0,-63.9,-1.2,-74.4,-338.1,-99.9,-875.7,0,0,9846,0,18,0,
5.4733,138.9,-65.1,-0.3,-71.4,-337.2,-95.7,-876.0,0,0,9852,0,19,0,
5.4767,129.0,-67.5,3.0,-67.5,-338.4,-102.6,-884.7,0,0,9858,0,20,0,
5.4800,130.5,-64.5,2.1,-70.8,-332.1,-105.6,-876.9,0,0,9864,0,21,0,
5.4833,120.3,-71.7,-5.7,-75.6,-326.1,-115.5,-888.9,0,0,9870,0,22,0,
5.4867,140.4,-58.5,10.5,-66.0,-356.4,-87.9,-876.6,0,0,9876,0,23,0,
5.4900,134.7,-62.4,4.8,-69.3,-345.0,-102.9,-881.4,0,0,9882,0,24,0,
5.4933,133.8,-67.8,2.4,-71.1,-347.4,-104.1,-881.1,0,0,9888,0,25,0,
5.4967,138.3,-65.1,6.0,-70.8,-339.6,-100.5,-876.0,0,0,9894,0,26,0,
5.5000,133.8,-74.7,2.7,-71.1,-339.0,-101.7,-882.9,0,0,9900,0,27,0,
5.5033,137.4,-71.4,1.5,-71.1,-337.8,-101.7,-885.0,0,0,9906,0,28,0,
5.5067,138.6,-63.6,2.7,-73.8,-337.2,-100.8,-885.0,0,0,9912,0,29,0,
5.5100,143.1,-60.9,6.6,-69.0,-334.2,-92.1,-878.7,0,0,9918,0,30,0,
5.5133,145.2,-62.7,9.0,-67.5,-334.5,-99.3,-885.9,0,0,9924,0,31,0,
5.5167,143.1,-69.3,1.2,-70.8,-335.1,-100.8,-891.3,0,0,9930,0,32,0,
5.5200,141.3,-72.0,2.4,-67.8,-336.3,-99.0,-896.4,0,0,9936,0,33,0,
5.5233,144.0,-68.4,6.9,-69.0,-336.6,-94.2,-883.5,0,0,9942,0,34,0,
5.5267,145.5,-68.1,6.6,-71.1,-338.1,-96.9,-874.5,0,0,9948,0,35,0,
5.5300,148.2,-69.0,6.3,-67.8,-334.5,-96.3,-867.3,0,0,9954,0,36,0,
5.5333,142.2,-65.1,1.2,-67.8,-333.9,-97.5,-873.3,0,0,9960,0,37,0,
5.5367,135.6,-71.1,-4.5,-71.1,-337.2,-103.2,-879.0,0,0,9966,0,38,0,
5.5400,131.1,-75.3,-4.8,-69.0,-338.7,-105.3,-894.6,0,0,9972,0,39,0,
5.5433,141.6,-61.2,4.5,-66.3,-338.1,-102.9,-887.1,0,0,9978,0,40,0,
5.5467,144.6,-60.6,4.2,-67.2,-340.5,-103.2,-895.2,0,0,9984,0,41,0,
5.5500,142.5,-59.7,7.5,-63.6,-337.5,-97.8,-889.5,0,0,9990,0,42,0,
5.5533,134.1,-69.9,3.9,-69.3,-341.4,-99.0,-893.4,0,0,9996,0,43,0,
5.5567,135.3,-76.2,1.2,-68.1,-339.3,-104.4,-895.2,0,0,10002,0,44,0,
5.5600,141.0,-68.7,1.8,-68.1,-342.6,-100.8,-888.6,0,0,10008,0,45,0,
5.5633,144.9,-64.2,5.7,-67.5,-341.1,-99.3,-885.6,0,0,10014,0,46,0,
5.5667,140.1,-64.5,-0.3,-68.4,-342.6,-101.4,-887.1,0,0,10020,0,47,0,
5.5700,143.1,-59.7,2.4,-63.9,-336.3,-100.2,-901.8,0,0,10026,0,48,0,
5.5733,148.5,-64.5,4.8,-65.1,-338.7,-98.4,-906.3,0,0,10032,0,49,0,
5.5767,140.1,-69.6,8.4,-63.6,-340.8,-100.5,-900.0,0,0,10038,0,50,0,
5.5800,141.9,-66.9,4.2,-62.4,-341.1,-99.3,-885.6,0,0,10044,0,51,0,
5.5833,138.6,-64.8,4.5,-63.3,-340.2,-100.5,-896.4,0,0,10050,0,52,0,
5.5867,130.5,-69.3,7.8,-65.7,-344.4,-104.7,-905.1,0,0,10056,0,53,0,
5.5900,129.0,-68.7,4.5,-65.1,-342.9,-104.1,-890.7,0,0,10062,0,54,0,
5.5933,130.5,-65.7,6.3,-67.2,-342.3,-102.6,-891.3,0,0,10068,0,55,0,
5.5967,126.0,-63.0,6.3,-67.2,-342.9,-104.1,-890.7,0,0,10074,0,56,0,
5.6000,128.1,-65.1,4.8,-66.6,-345.6,-112.8,-889.5,0,0,10080,0,57,0,
5.6033,118.8,-81.3,-3.6,-71.7,-325.5,-125.7,-912.6,0,0,10086,0,58,0,
5.6067,137.4,-55.5,15.0,-57.9,-349.2,-93.9,-903.3,0,0,10092,0,59,0,
5.6100,130.8,-59.1,12.3,-59.4,-347.1,-103.2,-904.8,0,0,10098,0,60,0,
5.6133,132.0,-61.8,8.4,-60.9,-342.3,-105.9,-898.5,0,0,10104,0,61,0,
5.6167,132.6,-59.1,9.9,-60.3,-336.9,-101.1,-892.8,0,0,10110,0,62,0,
5.6200,125.4,-68.7,9.0,-62.7,-337.8,-98.4,-903.0,0,0,10116,0,63,0,
5.6233,130.2,-70.8,9.0,-66.0,-337.2,-97.8,-904.5,0,0,10122,0,64,0,
5.6267,121.2,-72.6,9.6,-63.3,-339.3,-104.1,-907.5,0,0,10128,0,65,0,
5.6300,129.6,-64.2,9.6,-66.0,-340.2,-104.1,-894.0,0,0,10134,0,66,0,
5.6333,125.1,-56.7,15.9,-64.5,-340.8,-101.4,-895.5,0,0,10140,0,67,0,
5.6367,123.6,-59.7,7.2,-66.6,-342.6,-101.7,-904.2,0,0,10146,0,68,0,
5.6400,121.5,-64.5,3.9,-68.7,-345.0,-102.6,-906.3,0,0,10152,0,69,0,
5.6433,124.8,-61.8,6.0,-69.6,-343.2,-98.7,-892.2,0,0,10158,0,70,0,
5.6467,124.5,-62.7,9.3,-71.4,-342.6,-101.1,-894.0,0,0,10164,0,71,0,
5.6500,131.7,-60.9,8.7,-70.5,-339.9,-98.1,-894.3,0,0,10170,0,72,0,
5.6533,125.7,-57.0,9.9,-72.0,-341.7,-100.8,-904.2,0,0,10176,0,73,0,
5.6567,126.6,-47.7,9.6,-72.3,-342.3,-100.2,-906.0,0,0,10182,0,74,0,
5.6600,125.1,-50.1,10.2,-72.0,-339.6,-98.7,-909.0,0,0,10188,0,75,0,
5.6633,118.2,-63.9,9.6,-72.9,-343.5,-103.2,-914.7,0,0,10194,0,76,0,
5.6667,118.2,-62.4,11.4,-70.2,-341.7,-101.4,-915.9,0,0,10200,0,77,0,
5.6700,120.3,-50.1,12.3,-69.0,-341.1,-100.8,-909.3,0,0,10206,0,78,0,
5.6733,125.1,-52.2,12.3,-67.2,-340.8,-100.5,-906.3,0,0,10212,0,79,0,
5.6767,120.0,-60.0,5.4,-72.3,-345.6,-104.1,-906.0,0,0,10218,0,80,0,
5.6800,122.4,-60.9,6.9,-72.6,-342.9,-101.4,-908.7,0,0,10224,0,81,0,
5.6833,120.9,-56.4,6.0,-72.0,-342.9,-98.1,-912.9,0,0,10230,0,82,0,
5.6867,121.8,-50.7,7.5,-73.5,-340.5,-100.8,-912.0,0,0,10236,0,83,0,
5.6900,119.7,-61.2,4.2,-74.4,-345.0,-101.7,-913.2,0,0,10242,0,84,0,
5.6933,122.4,-54.3,7.2,-72.6,-343.8,-104.4,-919.5,0,0,10248,0,85,0,
5.6967,118.5,-53.7,8.4,-72.6,-342.9,-105.0,-918.0,0,0,10254,0,86,0,
5.7000,117.3,-63.9,1.8,-70.8,-341.1,-104.1,-922.8,0,0,10260,0,87,0,
5.7033,119.7,-61.8,4.5,-71.7,-340.2,-100.2,-911.7,0,0,10266,0,88,0,
5.7067,115.2,-68.4,-3.9,-76.2,-345.6,-102.0,-907.8,0,0,10272,0,89,0,
5.7100,119.1,-66.0,-0.3,-75.0,-343.2,-102.6,-902.7,0,0,10278,0,90,0,
5.7133,117.9,-57.6,0.3,-73.8,-342.3,-102.6,-912.6,0,0,10284,0,91,0,
5.7167,114.6,-69.9,-0.3,-78.3,-345.3,-101.7,-920.7,0,0,10290,0,92,0,
5.7200,116.1,-69.9,3.6,-73.5,-345.0,-102.6,-921.0,0,0,10296,0,93,0,
5.7233,116.4,-71.1,1.8,-75.3,-340.8,-101.4,-913.8,0,0,10302,0,94,0,
5.7267,113.7,-71.7,-2.1,-72.6,-344.4,-105.9,-916.5,0,0,10308,0,95,0,
5.7300,118.8,-67.2,1.2,-72.3,-342.0,-99.3,-914.7,0,0,10314,0,96,0,
5.7333,118.2,-69.6,2.4,-74.4,-342.9,-104.4,-913.2,0,0,10320,0,97,0,
5.7367,122.4,-61.2,9.9,-72.6,-341.7,-99.0,-912.3,0,0,10326,0,98,0,
5.7400,114.9,-58.5,5.4,-70.2,-341.7,-101.7,-912.3,0,0,10332,0,99,0,
5.7433,113.7,-61.2,6.6,-72.6,-344.7,-103.5,-910.5,0,0,10338,0,100,0,
5.7467,115.5,-63.0,2.4,-73.2,-343.2,-100.5,-908.1,0,0,10344,0,101,0,
5.7500,119.4,-61.5,3.9,-69.9,-342.9,-104.7,-919.8,0,0,10350,0,102,0,
5.7533,121.5,-70.2,-1.2,-72.6,-343.5,-106.2,-921.9,0,0,10356,0,103,0,
5.7567,113.1,-64.2,3.0,-69.3,-350.1,-117.3,-928.8,0,0,10362,0,104,0,
5.7600,121.2,-59.7,6.6,-65.4,-345.0,-109.8,-920.7,0,0,10368,0,105,0,
5.7633,124.8,-53.1,7.2,-69.0,-345.9,-105.3,-916.2,0,0,10374,0,106,0,
5.7667,125.4,-58.5,6.6,-72.6,-351.0,-107.7,-913.5,0,0,10380,0,107,0,
5.7700,123.6,-57.9,6.3,-71.4,-346.8,-104.7,-913.8,0,0,10386,0,108,0,
5.7733,127.5,-49.5,4.8,-72.3,-346.2,-104.7,-916.5,0,0,10392,0,109,0,
