# Mains_Frequency_(Hz) =,60,,,,,,,,,,
# Sample_Frequency_(Hz) =,300,,,,,,,,,,
# Sensor_Data_Units =,uV,,,,,,,,,,
# Headset_Name =,DSI-7 SN:23,,,,,,,,,,
# Data_Logger =,DSI-Streamer-v.1.08.119,,,,,,,,,,
# Date =,2/21/2024,,,,,,,,,,
# Time =, 18:56:14.040 ,,,,,,,,,,
# Patient_ID =,X M 01-JAN-2000 X,,,,,,,,,,
# Record_ID =,Startdate 21-FEB-2024 EEG_XX X X,,,,,,,,,,
# EEG Filter Settings =,Non-Filtered,,,,,,,,,,
# Comments =,,,,,,,,,,,
# Reference location:,Pz,,,,,,,,,,
Time,LE,F4,C4,P4,P3,C3,F3,Pz,Trigger,Time_Offset,ADC_Status,ADC_Sequence,Event,Comments
0.0033,200.1,-124.5,217.8,329.1,55.2,15.3,-242.4,0,0,6,0,237,0,
0.0067,200.7,-138.3,228.9,329.7,56.4,20.7,-244.8,0,0,12,0,238,0,
0.0100,193.2,-117.9,215.4,324.6,58.5,26.1,-252.9,0,0,18,0,239,0,
0.0133,199.8,-113.7,205.5,326.4,52.5,7.8,-243.9,0,0,24,0,240,0,
0.0167,197.4,-122.4,211.2,322.5,54.0,8.4,-256.2,0,0,30,0,241,0,
0.0200,201.3,-109.2,215.4,327.0,58.5,18.9,-249.6,0,0,36,0,242,0,
0.0233,189.3,-107.4,209.4,324.3,73.8,-5.4,-261.3,0,0,42,0,243,0,
0.0267,203.4,-105.0,219.3,329.7,57.9,19.8,-247.2,0,0,48,0,244,0,
0.0300,213.9,-95.1,221.4,334.8,51.9,31.5,-239.1,0,0,54,0,245,0,
0.0333,210.0,-102.6,216.9,327.6,58.8,25.5,-244.5,0,0,60,0,246,0,
0.0367,207.0,-110.7,222.3,330.9,59.1,24.6,-243.3,0,0,66,0,247,0,
0.0400,210.9,-111.6,219.9,331.2,59.1,28.2,-234.9,0,0,72,0,248,0,
0.0433,210.3,-107.4,228.0,336.3,60.9,27.0,-236.1,0,0,78,0,249,0,
0.0467,208.2,-102.0,228.6,337.2,64.8,30.3,-237.9,0,0,84,0,250,0,
0.0500,202.2,-108.3,224.1,335.7,65.4,25.8,-240.6,0,0,90,0,251,0,
0.0533,215.1,-124.8,221.7,337.5,64.8,27.3,-237.3,0,0,96,0,252,0,
0.0567,214.5,-106.2,222.9,338.1,67.2,23.7,-244.2,0,0,102,0,253,0,
0.0600,211.2,-93.0,222.6,342.0,69.6,26.4,-235.5,0,0,108,0,254,0,
0.0633,210.9,-102.6,223.5,336.9,64.5,25.2,-242.4,0,0,114,0,255,0,
0.0667,212.4,-95.1,227.4,338.7,64.8,24.0,-243.0,0,0,120,0,0,0,
0.0700,211.8,-100.2,227.4,340.8,69.3,30.9,-243.6,0,0,126,0,1,0,
0.0733,214.8,-99.9,230.4,340.8,69.0,32.4,-243.3,0,0,132,0,2,0,
0.0767,211.2,-102.6,231.9,344.4,69.9,31.2,-237.9,0,0,138,0,3,0,
0.0800,214.8,-95.1,232.5,345.3,70.5,24.3,-239.4,0,0,144,0,4,0,
0.0833,216.6,-96.3,224.4,343.8,72.0,30.3,-240.3,0,0,150,0,5,0,
0.0867,217.2,-87.9,231.3,342.3,72.6,30.3,-224.7,0,0,156,0,6,0,
0.0900,225.3,-85.2,234.6,345.3,75.0,34.5,-220.5,0,0,162,0,7,0,
0.0933,209.1,-90.9,236.1,344.4,70.2,43.2,-218.7,0,0,168,0,8,0,
0.0967,222.9,-97.8,228.9,341.4,71.1,35.7,-222.9,0,0,174,0,9,0,
0.1000,221.4,-105.3,236.1,343.5,76.5,34.8,-228.9,0,0,180,0,10,0,
0.1033,224.4,-105.3,239.1,343.5,76.2,38.1,-219.9,0,0,186,0,11,0,
0.1067,220.8,-90.6,225.3,338.4,90.3,28.8,-225.6,0,0,192,0,12,0,
0.1100,221.7,-83.4,226.5,343.8,78.6,33.9,-224.7,0,0,198,0,13,0,
0.1133,231.9,-77.4,239.4,348.9,59.1,46.5,-219.0,0,0,204,0,14,0,
0.1167,231.9,-79.8,234.9,347.7,74.7,38.1,-216.0,0,0,210,0,15,0,
0.1200,226.8,-86.4,230.4,348.6,74.1,42.0,-217.8,0,0,216,0,16,0,
0.1233,225.6,-91.8,228.6,348.9,69.0,32.4,-225.9,0,0,222,0,17,0,
0.1267,225.6,-89.4,225.3,343.2,69.0,34.2,-223.5,0,0,228,0,18,0,
0.1300,227.7,-87.3,230.1,342.9,72.0,35.4,-221.4,0,0,234,0,19,0,
0.1333,222.0,-95.4,228.0,341.4,73.2,35.1,-224.4,0,0,240,0,20,0,
0.1367,228.3,-86.4,231.0,343.8,74.7,31.8,-221.7,0,0,246,0,21,0,
0.1400,215.7,-91.5,226.2,338.7,73.5,32.7,-223.2,0,0,252,0,22,0,
0.1433,217.5,-90.3,233.4,338.7,70.2,35.1,-227.7,0,0,258,0,23,0,
0.1467,227.7,-86.4,226.5,339.3,73.8,42.3,-217.2,0,0,264,0,24,0,
0.1500,232.2,-80.4,233.1,341.7,75.6,43.5,-217.5,0,0,270,0,25,0,
0.1533,235.2,-90.9,236.4,341.7,77.4,41.4,-215.4,0,0,276,0,26,0,
0.1567,225.9,-101.7,224.4,339.3,69.0,33.9,-228.0,0,0,282,0,27,0,
0.1600,229.8,-119.4,222.0,335.7,71.4,34.5,-226.5,0,0,288,0,28,0,
0.1633,225.6,-84.9,224.1,335.7,71.4,35.4,-226.8,0,0,294,0,29,0,
0.1667,227.7,-81.3,225.6,339.9,72.0,37.5,-225.0,0,0,300,0,30,0,
0.1700,234.3,-79.5,228.3,339.6,72.9,47.1,-217.8,0,0,306,0,31,0,
0.1733,231.0,-75.3,232.8,340.2,75.9,46.8,-217.8,0,0,312,0,32,0,
0.1767,227.4,-89.1,235.8,337.2,71.7,40.5,-223.8,0,0,318,0,33,0,
0.1800,239.4,-76.5,240.0,339.9,75.6,40.2,-215.7,0,0,324,0,34,0,
0.1833,231.6,-75.6,240.0,339.3,78.9,41.7,-212.7,0,0,330,0,35,0,
0.1867,222.6,-79.8,236.4,342.0,78.6,47.4,-219.6,0,0,336,0,36,0,
0.1900,223.5,-79.8,232.2,339.3,83.1,21.0,-231.0,0,0,342,0,37,0,
0.1933,216.6,-88.2,227.7,335.4,91.5,19.2,-232.2,0,0,348,0,38,0,
0.1967,240.0,-78.6,243.0,347.7,63.0,52.5,-216.0,0,0,354,0,39,0,
0.2000,219.9,-71.4,238.8,346.5,74.7,41.7,-221.1,0,0,360,0,40,0,
0.2033,237.9,-68.7,234.9,347.7,73.5,48.3,-232.2,0,0,366,0,41,0,
0.2067,226.5,-77.4,231.3,342.9,73.5,36.9,-237.0,0,0,372,0,42,0,
0.2100,232.8,-83.7,230.7,343.2,77.4,43.2,-226.2,0,0,378,0,43,0,
0.2133,239.1,-79.8,235.5,338.4,76.8,43.5,-216.6,0,0,384,0,44,0,
0.2167,230.7,-105.9,230.7,334.2,74.7,40.8,-227.7,0,0,390,0,45,0,
0.2200,237.3,-86.4,228.0,334.8,73.8,41.1,-228.9,0,0,396,0,46,0,
0.2233,230.7,-88.8,227.1,333.3,76.5,37.5,-237.0,0,0,402,0,47,0,
0.2267,234.3,-92.4,226.8,335.7,76.2,39.9,-235.8,0,0,408,0,48,0,
0.2300,238.8,-96.6,226.2,334.2,79.8,41.1,-230.1,0,0,414,0,49,0,
0.2333,235.8,-90.9,224.4,333.6,78.3,45.3,-231.9,0,0,420,0,50,0,
0.2367,234.6,-91.8,222.9,335.4,81.3,45.6,-232.2,0,0,426,0,51,0,
0.2400,244.5,-91.5,224.1,339.6,78.0,38.4,-224.4,0,0,432,0,52,0,
0.2433,238.8,-83.4,227.1,340.2,78.6,40.2,-228.3,0,0,438,0,53,0,
0.2467,236.1,-90.6,223.2,335.7,75.6,36.9,-241.2,0,0,444,0,54,0,
0.2500,236.1,-90.3,221.1,338.1,76.8,45.6,-229.5,0,0,450,0,55,0,
0.2533,229.5,-91.2,220.5,336.3,78.6,43.5,-239.7,0,0,456,0,56,0,
0.2567,231.0,-92.1,219.0,339.6,82.8,41.4,-238.2,0,0,462,0,57,0,
0.2600,221.4,-98.4,213.3,334.8,93.3,20.4,-246.0,0,0,468,0,58,0,
0.2633,247.8,-81.3,234.3,348.9,69.0,61.2,-221.4,0,0,474,0,59,0,
0.2667,236.7,-94.5,233.4,345.9,69.0,40.8,-243.6,0,0,480,0,60,0,
0.2700,241.8,-92.1,228.0,349.5,76.2,51.0,-233.4,0,0,486,0,61,0,
0.2733,237.0,-105.6,230.1,346.2,76.5,46.5,-235.2,0,0,492,0,62,0,
0.2767,236.1,-81.0,234.0,347.4,72.9,36.9,-240.0,0,0,498,0,63,0,
0.2800,236.4,-82.2,221.4,342.3,73.8,33.3,-238.8,0,0,504,0,64,0,
0.2833,234.0,-86.1,225.6,344.7,75.9,48.3,-234.6,0,0,510,0,65,0,
0.2867,235.2,-88.5,231.6,342.0,74.7,39.6,-244.8,0,0,516,0,66,0,
0.2900,241.2,-69.9,232.5,344.4,75.9,41.1,-243.6,0,0,522,0,67,0,
0.2933,241.2,-72.9,231.0,345.3,76.5,39.0,-241.8,0,0,528,0,68,0,
0.2967,236.1,-81.9,225.6,344.7,75.0,32.4,-244.8,0,0,534,0,69,0,
0.3000,232.8,-83.7,229.2,345.9,75.3,31.8,-243.3,0,0,540,0,70,0,
0.3033,233.4,-94.2,224.7,339.9,72.6,35.7,-242.4,0,0,546,0,71,0,
0.3067,237.0,-90.3,231.9,339.9,72.6,37.2,-240.3,0,0,552,0,72,0,
0.3100,228.9,-92.7,228.3,339.9,71.7,36.6,-243.9,0,0,558,0,73,0,
0.3133,231.6,-81.9,229.8,346.8,75.0,40.8,-241.5,0,0,564,0,74,0,
0.3167,226.8,-88.8,225.9,343.8,73.8,32.7,-249.0,0,0,570,0,75,0,
0.3200,226.8,-80.7,225.6,344.4,78.0,43.5,-244.8,0,0,576,0,76,0,
0.3233,228.6,-88.8,223.2,339.9,81.6,32.4,-255.0,0,0,582,0,77,0,
0.3267,233.1,-97.2,231.0,340.2,91.5,36.6,-243.3,0,0,588,0,78,0,
0.3300,252.6,-78.3,240.3,349.8,62.4,57.9,-231.3,0,0,594,0,79,0,
0.3333,247.8,-57.3,232.5,349.2,78.9,50.4,-234.9,0,0,600,0,80,0,
0.3367,247.2,-66.6,232.5,343.5,72.6,48.9,-242.4,0,0,606,0,81,0,
0.3400,242.1,-73.2,228.0,343.8,75.3,54.6,-241.8,0,0,612,0,82,0,
0.3433,240.6,-81.6,229.2,342.9,73.2,47.1,-244.5,0,0,618,0,83,0,
0.3467,239.7,-78.9,230.4,342.6,72.6,47.4,-243.3,0,0,624,0,84,0,
0.3500,238.2,-78.0,230.7,344.4,69.9,42.6,-240.6,0,0,630,0,85,0,
0.3533,242.7,-66.6,233.1,344.7,71.1,45.9,-240.6,0,0,636,0,86,0,
0.3567,240.0,-71.4,233.1,343.5,71.7,44.7,-246.3,0,0,642,0,87,0,
0.3600,239.7,-65.1,243.6,347.1,71.4,46.8,-237.6,0,0,648,0,88,0,
0.3633,245.4,-71.4,237.0,345.9,76.2,52.2,-235.8,0,0,654,0,89,0,
0.3667,236.7,-75.3,222.6,344.4,75.9,47.7,-241.8,0,0,660,0,90,0,
0.3700,237.9,-75.0,230.1,343.8,77.7,50.4,-242.4,0,0,666,0,91,0,
0.3733,243.0,-76.8,234.9,348.0,75.9,49.2,-244.8,0,0,672,0,92,0,
0.3767,227.1,-88.8,224.7,342.3,72.6,48.9,-249.3,0,0,678,0,93,0,
0.3800,245.4,-69.3,234.0,346.2,80.4,56.1,-244.8,0,0,684,0,94,0,
0.3833,244.2,-72.0,233.7,345.0,78.9,57.0,-243.3,0,0,690,0,95,0,
0.3867,246.9,-66.0,239.4,346.8,82.5,52.8,-230.1,0,0,696,0,96,0,
0.3900,241.5,-78.0,233.1,346.5,77.7,51.6,-229.2,0,0,702,0,97,0,
0.3933,240.3,-73.5,236.1,346.5,91.5,38.1,-242.4,0,0,708,0,98,0,
0.3967,231.0,-69.6,227.1,341.4,89.4,35.4,-247.2,0,0,714,0,99,0,
0.4000,243.3,-64.8,236.4,346.2,64.2,56.4,-239.4,0,0,720,0,100,0,
0.4033,240.6,-72.3,233.4,340.5,77.7,48.0,-251.1,0,0,726,0,101,0,
0.4067,242.1,-74.1,231.9,340.5,77.4,54.0,-245.7,0,0,732,0,102,0,
0.4100,239.1,-82.2,224.7,340.8,75.9,58.8,-247.2,0,0,738,0,103,0,
0.4133,240.3,-77.1,225.0,345.3,76.2,54.0,-245.7,0,0,744,0,104,0,
0.4167,238.2,-76.2,229.5,344.4,75.9,47.7,-244.8,0,0,750,0,105,0,
0.4200,249.0,-59.4,228.9,345.9,78.6,58.2,-236.7,0,0,756,0,106,0,
0.4233,242.4,-50.4,227.4,345.6,78.3,54.9,-243.6,0,0,762,0,107,0,
0.4267,233.1,-65.7,225.6,343.8,79.5,46.8,-250.2,0,0,768,0,108,0,
0.4300,234.0,-80.7,223.5,343.5,78.6,45.6,-253.5,0,0,774,0,109,0,
0.4333,234.9,-84.6,223.2,344.4,79.5,44.7,-253.8,0,0,780,0,110,0,
0.4367,234.9,-84.9,221.7,343.5,81.3,55.2,-249.0,0,0,786,0,111,0,
0.4400,238.2,-77.7,230.7,345.9,80.4,48.3,-249.0,0,0,792,0,112,0,
0.4433,240.9,-87.9,231.3,347.4,83.1,46.5,-252.3,0,0,798,0,113,0,
0.4467,235.8,-77.1,227.1,345.0,83.1,49.8,-256.5,0,0,804,0,114,0,
0.4500,240.0,-62.7,231.9,348.3,81.9,54.3,-251.7,0,0,810,0,115,0,
0.4533,234.6,-63.9,233.1,347.7,79.5,53.4,-260.4,0,0,816,0,116,0,
0.4567,235.2,-75.0,223.8,341.7,83.1,56.1,-254.1,0,0,822,0,117,0,
0.4600,233.1,-71.4,221.7,340.8,81.9,52.2,-257.4,0,0,828,0,118,0,
0.4633,232.5,-73.2,226.2,345.6,83.4,47.1,-267.0,0,0,834,0,119,0,
0.4667,231.0,-78.6,222.0,341.1,93.0,39.6,-258.0,0,0,840,0,120,0,
0.4700,224.4,-81.9,217.8,338.1,96.0,36.6,-266.4,0,0,846,0,121,0,
0.4733,243.0,-69.9,230.7,346.8,70.5,67.5,-243.9,0,0,852,0,122,0,
0.4767,240.3,-69.9,231.9,345.9,81.0,56.1,-252.0,0,0,858,0,123,0,
0.4800,243.0,-68.1,230.1,345.0,79.8,63.0,-244.2,0,0,864,0,124,0,
0.4833,227.4,-79.2,217.8,338.4,77.4,55.8,-254.7,0,0,870,0,125,0,
0.4867,233.7,-69.9,227.1,342.3,75.6,43.8,-253.5,0,0,876,0,126,0,
0.4900,230.1,-74.4,227.4,342.6,79.5,50.1,-254.7,0,0,882,0,127,0,
0.4933,228.3,-78.0,230.7,340.8,82.2,47.1,-261.3,0,0,888,0,128,0,
0.4967,231.3,-78.0,229.8,339.3,84.9,51.0,-259.2,0,0,894,0,129,0,
0.5000,237.9,-74.4,223.8,339.6,82.8,55.8,-251.4,0,0,900,0,130,0,
0.5033,239.7,-72.3,230.7,343.8,82.8,54.3,-254.1,0,0,906,0,131,0,
0.5067,226.2,-77.4,219.6,337.5,79.5,49.8,-261.6,0,0,912,0,132,0,
0.5100,228.0,-66.6,220.2,339.6,79.5,41.4,-264.9,0,0,918,0,133,0,
0.5133,228.9,-75.6,226.5,342.6,81.6,46.2,-260.4,0,0,924,0,134,0,
0.5167,237.9,-72.0,229.8,342.6,83.1,50.7,-252.6,0,0,930,0,135,0,
0.5200,242.1,-69.6,225.3,342.6,84.9,58.2,-238.2,0,0,936,0,136,0,
0.5233,245.1,-75.0,223.8,341.4,85.5,55.5,-248.1,0,0,942,0,137,0,
0.5267,234.3,-78.6,225.3,341.7,84.3,59.4,-253.5,0,0,948,0,138,0,
0.5300,237.9,-74.7,228.3,342.3,86.4,61.5,-252.9,0,0,954,0,139,0,
0.5333,247.2,-67.8,235.5,347.7,88.8,58.2,-238.5,0,0,960,0,140,0,
0.5367,240.0,-61.2,232.8,342.9,88.5,57.0,-244.8,0,0,966,0,141,0,
0.5400,244.2,-57.9,227.7,339.0,82.8,54.0,-242.7,0,0,972,0,142,0,
0.5433,244.2,-60.6,240.3,345.6,83.7,58.8,-239.4,0,0,978,0,143,0,
0.5467,232.2,-71.4,233.4,339.0,95.1,36.0,-260.4,0,0,984,0,144,0,
0.5500,231.9,-75.0,218.1,335.7,86.1,45.3,-259.8,0,0,990,0,145,0,
0.5533,248.4,-64.2,233.4,344.1,71.1,66.3,-238.2,0,0,996,0,146,0,
0.5567,238.5,-72.9,230.1,341.1,81.3,49.5,-246.9,0,0,1002,0,147,0,
0.5600,236.4,-70.8,230.7,341.7,79.5,51.3,-246.0,0,0,1008,0,148,0,
0.5633,230.7,-81.0,229.8,337.2,77.1,48.0,-247.5,0,0,1014,0,149,0,
0.5667,233.7,-72.6,230.4,338.1,78.9,61.8,-241.8,0,0,1020,0,150,0,
0.5700,228.6,-84.0,226.2,341.1,78.6,51.3,-245.7,0,0,1026,0,151,0,
0.5733,222.9,-83.7,221.1,335.4,77.1,51.0,-252.6,0,0,1032,0,152,0,
0.5767,225.3,-72.6,227.7,344.1,78.0,51.0,-251.4,0,0,1038,0,153,0,
0.5800,232.2,-67.8,221.7,337.8,79.5,48.3,-253.8,0,0,1044,0,154,0,
0.5833,228.9,-73.8,220.5,335.1,80.4,40.2,-252.3,0,0,1050,0,155,0,
0.5867,224.7,-74.1,219.9,338.1,78.6,44.1,-253.5,0,0,1056,0,156,0,
0.5900,228.9,-78.0,221.1,336.9,78.0,43.8,-245.4,0,0,1062,0,157,0,
0.5933,228.6,-84.9,217.2,338.7,75.0,40.2,-251.4,0,0,1068,0,158,0,
0.5967,224.7,-91.2,212.1,334.8,75.6,41.1,-253.2,0,0,1074,0,159,0,
0.6000,220.5,-70.8,220.5,338.1,73.5,46.5,-253.8,0,0,1080,0,160,0,
0.6033,226.8,-86.4,220.5,340.2,77.1,47.7,-247.5,0,0,1086,0,161,0,
0.6067,228.6,-77.4,222.6,338.1,77.1,39.0,-249.0,0,0,1092,0,162,0,
0.6100,222.3,-78.3,213.6,335.1,68.4,36.0,-246.9,0,0,1098,0,163,0,
0.6133,226.2,-83.4,219.9,333.6,75.6,24.3,-254.7,0,0,1104,0,164,0,
0.6167,213.9,-86.1,217.5,330.0,81.3,21.0,-259.2,0,0,1110,0,165,0,
0.6200,235.5,-73.2,222.9,340.5,56.7,50.1,-241.8,0,0,1116,0,166,0,
0.6233,227.4,-82.8,220.5,338.1,73.8,43.5,-241.2,0,0,1122,0,167,0,
0.6267,234.0,-78.6,228.6,338.4,70.5,47.4,-236.4,0,0,1128,0,168,0,
0.6300,225.6,-72.0,229.5,341.1,70.5,42.9,-249.3,0,0,1134,0,169,0,
0.6333,229.8,-66.9,221.7,336.6,71.7,39.6,-241.8,0,0,1140,0,170,0,
0.6367,228.3,-72.6,223.8,336.0,77.7,46.5,-243.0,0,0,1146,0,171,0,
0.6400,219.3,-77.1,225.6,332.1,73.5,44.4,-248.7,0,0,1152,0,172,0,
0.6433,224.1,-77.7,222.6,330.9,72.9,39.6,-241.5,0,0,1158,0,173,0,
0.6467,228.9,-73.8,229.8,337.2,73.8,39.6,-234.9,0,0,1164,0,174,0,
0.6500,226.2,-81.0,228.9,336.0,74.1,36.3,-247.5,0,0,1170,0,175,0,
0.6533,224.1,-75.6,223.2,331.2,74.4,35.1,-242.7,0,0,1176,0,176,0,
0.6567,222.3,-67.5,227.4,332.4,76.8,39.6,-246.3,0,0,1182,0,177,0,
0.6600,216.9,-72.0,226.2,332.1,74.1,34.2,-246.6,0,0,1188,0,178,0,
0.6633,226.5,-68.4,228.3,331.5,74.7,44.7,-241.2,0,0,1194,0,179,0,
0.6667,216.3,-73.8,223.5,328.5,74.7,42.3,-242.7,0,0,1200,0,180,0,
0.6700,227.1,-73.5,224.4,329.7,76.2,49.5,-238.8,0,0,1206,0,181,0,
0.6733,228.6,-81.6,225.3,326.1,88.8,33.9,-246.0,0,0,1212,0,182,0,
0.6767,220.8,-75.6,227.4,326.4,89.4,39.3,-247.2,0,0,1218,0,183,0,
0.6800,236.4,-59.1,237.9,335.7,66.9,65.4,-229.5,0,0,1224,0,184,0,
0.6833,228.9,-73.2,231.0,332.7,75.9,49.2,-252.0,0,0,1230,0,185,0,
0.6867,223.2,-72.0,226.5,332.7,70.2,41.1,-253.2,0,0,1236,0,186,0,
0.6900,225.0,-70.2,228.6,334.2,75.3,39.6,-254.1,0,0,1242,0,187,0,
0.6933,222.0,-61.5,237.0,337.2,77.1,45.9,-246.3,0,0,1248,0,188,0,
0.6967,224.4,-70.5,230.1,333.0,77.4,47.1,-245.7,0,0,1254,0,189,0,
0.7000,222.9,-67.8,227.7,330.9,78.9,48.9,-247.8,0,0,1260,0,190,0,
0.7033,216.6,-75.0,227.1,331.2,78.6,49.2,-250.5,0,0,1266,0,191,0,
0.7067,219.3,-70.5,223.5,330.9,73.2,42.3,-249.3,0,0,1272,0,192,0,
0.7100,215.7,-75.9,223.2,333.6,73.5,30.0,-255.9,0,0,1278,0,193,0,
0.7133,220.8,-69.9,221.7,329.4,72.9,40.5,-251.1,0,0,1284,0,194,0,
0.7167,222.3,-72.6,225.9,327.6,75.3,39.3,-256.5,0,0,1290,0,195,0,
0.7200,216.3,-82.2,223.2,330.0,74.4,38.1,-257.1,0,0,1296,0,196,0,
0.7233,225.0,-77.7,229.2,333.3,80.4,42.6,-252.6,0,0,1302,0,197,0,
0.7267,221.1,-83.1,229.2,328.8,77.1,42.9,-245.7,0,0,1308,0,198,0,
0.7300,228.6,-59.4,232.2,333.3,78.9,42.6,-251.1,0,0,1314,0,199,0,
0.7333,229.8,-65.7,229.8,332.1,78.9,43.5,-250.8,0,0,1320,0,200,0,
0.7367,226.5,-67.5,227.1,333.3,79.5,46.8,-247.2,0,0,1326,0,201,0,
0.7400,222.6,-75.6,227.7,331.8,81.6,49.8,-249.9,0,0,1332,0,202,0,
0.7433,231.9,-63.6,228.9,337.2,83.1,43.5,-243.6,0,0,1338,0,203,0,
0.7467,211.5,-79.5,215.1,330.6,93.3,20.4,-266.4,0,0,1344,0,204,0,
0.7500,232.2,-64.8,234.9,343.8,67.8,56.1,-239.4,0,0,1350,0,205,0,
0.7533,234.3,-72.0,226.5,339.3,72.6,53.7,-239.7,0,0,1356,0,206,0,
0.7567,232.5,-68.7,225.3,336.6,73.8,52.8,-245.4,0,0,1362,0,207,0,
0.7600,226.5,-62.1,216.3,333.9,72.9,48.0,-252.3,0,0,1368,0,208,0,
0.7633,225.9,-61.5,221.1,335.4,75.0,45.9,-248.4,0,0,1374,0,209,0,
0.7667,227.1,-66.0,223.8,335.4,74.4,47.1,-255.9,0,0,1380,0,210,0,
0.7700,232.5,-60.3,230.7,337.8,78.3,48.3,-249.3,0,0,1386,0,211,0,
0.7733,229.8,-63.0,231.0,336.9,77.7,48.3,-251.7,0,0,1392,0,212,0,
0.7767,230.1,-79.5,228.0,334.8,73.2,42.9,-255.0,0,0,1398,0,213,0,
0.7800,229.5,-67.2,234.3,340.2,76.5,44.7,-251.7,0,0,1404,0,214,0,
0.7833,223.2,-56.4,236.1,336.0,74.4,43.5,-254.1,0,0,1410,0,215,0,
0.7867,220.2,-69.0,222.3,335.7,71.7,40.2,-261.9,0,0,1416,0,216,0,
0.7900,225.9,-62.4,227.4,333.9,74.4,45.6,-257.1,0,0,1422,0,217,0,
0.7933,227.7,-61.8,230.1,335.1,75.3,39.6,-255.0,0,0,1428,0,218,0,
0.7967,230.4,-60.9,230.4,332.1,74.1,39.3,-253.5,0,0,1434,0,219,0,
0.8000,232.5,-67.2,226.5,331.2,71.7,42.3,-256.5,0,0,1440,0,220,0,
0.8033,236.7,-62.1,228.6,334.5,78.6,45.3,-250.2,0,0,1446,0,221,0,
0.8067,232.8,-64.5,231.0,336.3,77.7,50.1,-252.9,0,0,1452,0,222,0,
0.8100,234.0,-56.1,236.7,342.9,84.9,60.9,-252.0,0,0,1458,0,223,0,
0.8133,224.4,-55.2,230.1,340.2,79.5,49.2,-253.8,0,0,1464,0,224,0,
0.8167,238.8,-48.6,240.3,343.8,81.3,40.5,-251.1,0,0,1470,0,225,0,
0.8200,242.7,-59.7,236.7,340.8,77.7,43.8,-253.2,0,0,1476,0,226,0,
0.8233,235.8,-64.8,234.3,339.3,75.9,43.2,-253.2,0,0,1482,0,227,0,
0.8267,223.8,-63.3,228.3,335.1,74.7,37.5,-251.4,0,0,1488,0,228,0,
0.8300,228.3,-59.7,233.7,333.3,74.1,37.5,-250.8,0,0,1494,0,229,0,
0.8333,229.2,-55.8,236.4,335.1,77.1,43.8,-253.5,0,0,1500,0,230,0,
0.8367,229.8,-58.8,224.1,337.5,79.5,47.1,-250.8,0,0,1506,0,231,0,
0.8400,232.5,-73.8,228.9,339.0,78.9,48.0,-252.9,0,0,1512,0,232,0,
0.8433,228.3,-54.3,232.5,339.0,77.1,39.0,-259.5,0,0,1518,0,233,0,
0.8467,234.9,-44.7,243.0,344.4,78.9,42.9,-254.4,0,0,1524,0,234,0,
0.8500,232.2,-57.3,239.4,340.8,78.6,42.9,-256.2,0,0,1530,0,235,0,
0.8533,233.1,-51.0,237.3,344.4,78.9,46.2,-256.5,0,0,1536,0,236,0,
0.8567,235.2,-48.9,237.9,341.4,79.8,46.8,-252.3,0,0,1542,0,237,0,
0.8600,224.7,-57.6,234.3,338.4,84.0,36.3,-263.1,0,0,1548,0,238,0,
0.8633,217.2,-65.1,224.7,334.5,89.1,17.4,-277.8,0,0,1554,0,239,0,
0.8667,246.9,-33.3,252.3,351.3,68.1,60.3,-247.2,0,0,1560,0,240,0,
0.8700,238.2,-33.0,240.3,346.2,75.3,46.2,-256.2,0,0,1566,0,241,0,
0.8733,236.1,-38.4,246.3,347.1,81.0,50.4,-261.3,0,0,1572,0,242,0,
0.8767,233.1,-56.4,237.3,341.1,85.2,51.6,-261.3,0,0,1578,0,243,0,
0.8800,234.0,-52.5,236.1,342.3,84.0,48.9,-256.2,0,0,1584,0,244,0,
0.8833,230.7,-59.4,236.4,337.5,82.2,42.0,-259.5,0,0,1590,0,245,0,
0.8867,232.5,-54.3,237.3,339.0,77.4,36.3,-274.5,0,0,1596,0,246,0,
0.8900,236.1,-44.7,233.7,338.7,81.6,45.9,-266.1,0,0,1602,0,247,0,
0.8933,233.7,-45.3,241.5,345.0,84.0,44.4,-267.0,0,0,1608,0,248,0,
0.8967,237.9,-42.3,235.5,341.7,85.2,50.4,-260.4,0,0,1614,0,249,0,
0.9000,236.1,-37.2,240.3,344.4,85.8,48.9,-261.6,0,0,1620,0,250,0,
0.9033,234.9,-43.8,237.6,346.2,85.8,42.3,-263.4,0,0,1626,0,251,0,
0.9067,230.4,-45.9,239.4,345.9,89.1,43.5,-265.2,0,0,1632,0,252,0,
0.9100,240.3,-42.6,244.2,346.8,92.1,46.8,-261.6,0,0,1638,0,253,0,
0.9133,233.1,-45.0,244.8,343.2,87.3,44.1,-270.6,0,0,1644,0,254,0,
0.9167,231.0,-58.2,237.3,342.3,82.8,37.5,-272.1,0,0,1650,0,255,0,
0.9200,229.5,-46.2,234.0,345.6,90.3,48.6,-272.1,0,0,1656,0,0,0,
0.9233,236.1,-40.5,235.8,342.0,84.9,48.3,-266.7,0,0,1662,0,1,0,
0.9267,242.1,-40.5,236.7,345.3,84.3,40.8,-267.9,0,0,1668,0,2,0,
0.9300,232.8,-48.6,234.6,344.7,83.7,41.7,-270.3,0,0,1674,0,3,0,
0.9333,237.0,-43.8,237.9,346.8,86.4,46.8,-267.6,0,0,1680,0,4,0,
0.9367,236.7,-42.0,239.1,345.3,87.9,56.7,-262.2,0,0,1686,0,5,0,
0.9400,229.2,-49.2,231.6,342.0,99.9,24.3,-285.9,0,0,1692,0,6,0,
0.9433,232.5,-41.4,237.9,345.3,84.6,35.4,-282.0,0,0,1698,0,7,0,
0.9467,243.9,-24.0,245.7,350.4,70.8,53.7,-264.9,0,0,1704,0,8,0,
0.9500,235.2,-36.3,239.1,343.8,81.0,44.4,-270.3,0,0,1710,0,9,0,
0.9533,231.0,-35.4,252.3,346.8,76.8,39.0,-271.8,0,0,1716,0,10,0,
0.9567,234.6,-41.7,244.2,348.3,79.8,42.6,-272.1,0,0,1722,0,11,0,
0.9600,237.9,-33.3,242.4,351.0,82.5,45.9,-267.6,0,0,1728,0,12,0,
0.9633,241.2,-40.2,247.2,351.6,83.4,44.7,-267.0,0,0,1734,0,13,0,
0.9667,233.7,-45.6,240.3,347.1,82.8,44.4,-273.3,0,0,1740,0,14,0,
0.9700,240.3,-49.2,243.6,351.0,86.1,50.7,-270.6,0,0,1746,0,15,0,
0.9733,241.8,-30.6,244.8,348.6,88.2,52.8,-271.2,0,0,1752,0,16,0,
0.9767,237.6,-30.9,244.2,348.9,86.1,48.9,-269.1,0,0,1758,0,17,0,
0.9800,239.7,-36.0,242.7,350.4,86.7,42.6,-273.9,0,0,1764,0,18,0,
0.9833,235.8,-38.7,241.5,351.3,88.2,45.6,-271.8,0,0,1770,0,19,0,
0.9867,249.0,-48.3,245.1,348.0,80.7,40.5,-279.0,0,0,1776,0,20,0,
0.9900,235.8,-37.8,243.6,352.2,81.3,42.9,-278.4,0,0,1782,0,21,0,
0.9933,241.8,-27.9,244.5,349.8,82.5,44.7,-279.0,0,0,1788,0,22,0,
0.9967,238.8,-39.6,239.4,348.3,83.4,42.0,-283.2,0,0,1794,0,23,0,
1.0000,236.4,-43.5,238.2,344.7,80.4,35.1,-283.5,0,0,1800,0,24,0,
1.0033,235.5,-44.4,238.5,345.3,85.5,38.1,-282.9,0,0,1806,0,25,0,
1.0067,234.6,-50.4,238.5,342.9,85.8,34.8,-282.6,0,0,1812,0,26,0,
1.0100,225.6,-52.8,226.2,337.8,99.0,13.5,-299.7,0,0,1818,0,27,0,
1.0133,248.7,-30.9,240.6,348.9,72.6,50.1,-273.0,0,0,1824,0,28,0,
1.0167,238.2,-42.3,237.9,347.1,81.0,45.3,-276.6,0,0,1830,0,29,0,
1.0200,235.8,-44.7,235.2,345.0,82.8,43.5,-278.1,0,0,1836,0,30,0,
1.0233,239.1,-38.1,230.7,342.9,85.5,40.2,-280.5,0,0,1842,0,31,0,
1.0267,226.2,-54.0,234.3,341.1,86.4,43.8,-288.9,0,0,1848,0,32,0,
1.0300,228.0,-56.7,228.6,341.4,84.3,41.4,-295.2,0,0,1854,0,33,0,
1.0333,228.6,-56.4,231.6,342.6,83.7,40.8,-280.2,0,0,1860,0,34,0,
1.0367,234.9,-46.5,227.4,341.1,87.3,45.0,-267.0,0,0,1866,0,35,0,
1.0400,228.6,-59.4,226.5,340.2,84.3,36.0,-280.5,0,0,1872,0,36,0,
1.0433,233.1,-60.9,231.9,343.5,86.1,42.6,-273.6,0,0,1878,0,37,0,
1.0467,233.1,-53.1,234.3,342.9,87.9,43.2,-265.2,0,0,1884,0,38,0,
1.0500,239.7,-47.4,233.1,343.5,91.5,47.1,-267.0,0,0,1890,0,39,0,
1.0533,238.2,-47.1,230.1,341.4,88.2,45.3,-266.7,0,0,1896,0,40,0,
1.0567,236.1,-41.7,233.7,343.5,87.3,46.2,-263.1,0,0,1902,0,41,0,
1.0600,227.1,-54.0,224.7,338.4,78.0,39.3,-279.6,0,0,1908,0,42,0,
1.0633,235.5,-49.5,231.0,341.4,82.2,41.4,-270.3,0,0,1914,0,43,0,
1.0667,243.0,-40.5,237.6,346.8,85.8,47.7,-261.9,0,0,1920,0,44,0,
1.0700,236.7,-46.8,229.8,340.2,85.2,47.7,-259.2,0,0,1926,0,45,0,
1.0733,240.3,-38.4,231.3,345.6,85.8,46.2,-266.7,0,0,1932,0,46,0,
1.0767,240.0,-46.2,228.9,342.9,87.6,46.8,-265.8,0,0,1938,0,47,0,
1.0800,239.1,-45.9,227.4,343.8,82.8,43.5,-272.7,0,0,1944,0,48,0,
1.0833,235.8,-56.7,223.2,336.9,79.5,42.6,-274.8,0,0,1950,0,49,0,
1.0867,231.9,-46.8,226.5,337.2,80.7,51.3,-278.7,0,0,1956,0,50,0,
1.0900,246.3,-50.1,231.6,343.2,84.3,46.8,-275.1,0,0,1962,0,51,0,
1.0933,243.3,-51.9,229.2,338.1,85.8,40.2,-280.8,0,0,1968,0,52,0,
1.0967,247.2,-43.5,232.8,342.3,84.3,44.7,-274.2,0,0,1974,0,53,0,
1.1000,238.2,-42.6,234.6,342.9,84.6,45.0,-277.5,0,0,1980,0,54,0,
1.1033,242.4,-37.8,240.3,344.4,87.9,51.0,-272.4,0,0,1986,0,55,0,
1.1067,249.3,-39.3,245.1,343.8,81.3,47.4,-267.0,0,0,1992,0,56,0,
1.1100,234.3,-50.4,229.5,342.6,94.5,27.9,-280.2,0,0,1998,0,57,0,
1.1133,231.6,-54.3,226.8,339.6,94.5,42.0,-284.4,0,0,2004,0,58,0,
1.1167,249.6,-31.8,243.3,348.0,71.1,58.8,-273.9,0,0,2010,0,59,0,
1.1200,231.6,-40.5,231.3,342.3,81.6,44.4,-287.7,0,0,2016,0,60,0,
1.1233,242.4,-41.4,237.3,348.0,80.1,46.5,-281.1,0,0,2022,0,61,0,
1.1267,227.4,-53.7,232.5,340.5,76.2,42.6,-285.6,0,0,2028,0,62,0,
1.1300,242.4,-41.1,243.3,345.6,80.7,43.8,-279.6,0,0,2034,0,63,0,
1.1333,242.4,-41.4,237.3,343.8,80.1,45.3,-284.4,0,0,2040,0,64,0,
1.1367,235.8,-48.9,236.7,342.3,79.5,41.1,-287.7,0,0,2046,0,65,0,
1.1400,237.0,-49.8,234.0,342.0,80.1,52.2,-279.9,0,0,2052,0,66,0,
1.1433,245.1,-44.1,240.6,343.2,77.4,45.0,-276.9,0,0,2058,0,67,0,
1.1467,235.5,-58.2,234.0,340.8,74.4,38.7,-283.2,0,0,2064,0,68,0,
1.1500,240.6,-52.5,231.9,342.6,78.3,42.3,-286.5,0,0,2070,0,69,0,
1.1533,239.1,-45.0,239.1,339.6,77.4,42.0,-286.8,0,0,2076,0,70,0,
1.1567,236.4,-49.5,232.5,339.9,75.0,42.9,-291.9,0,0,2082,0,71,0,
1.1600,226.5,-49.5,228.9,334.5,91.8,26.1,-292.5,0,0,2088,0,72,0,
1.1633,235.8,-36.0,235.5,339.3,84.0,45.0,-282.3,0,0,2094,0,73,0,
1.1667,240.9,-32.7,237.9,342.3,63.3,59.4,-276.0,0,0,2100,0,74,0,
1.1700,236.7,-42.3,235.2,336.9,78.3,50.1,-283.8,0,0,2106,0,75,0,
1.1733,237.6,-40.2,236.1,339.0,81.6,55.5,-282.3,0,0,2112,0,76,0,
1.1767,230.1,-42.3,233.4,336.3,79.2,42.0,-296.7,0,0,2118,0,77,0,
1.1800,242.7,-32.7,237.0,336.0,79.5,46.5,-279.0,0,0,2124,0,78,0,
1.1833,233.7,-32.1,235.2,338.7,78.9,44.4,-278.1,0,0,2130,0,79,0,
1.1867,228.9,-36.6,227.4,335.7,77.7,45.9,-278.7,0,0,2136,0,80,0,
1.1900,240.0,-31.5,235.8,341.1,83.1,45.0,-283.2,0,0,2142,0,81,0,
1.1933,240.6,-31.2,241.2,342.6,83.7,56.1,-272.7,0,0,2148,0,82,0,
1.1967,244.2,-34.2,242.7,339.3,81.0,51.0,-278.4,0,0,2154,0,83,0,
1.2000,232.8,-35.1,234.9,339.6,83.1,53.1,-275.7,0,0,2160,0,84,0,
1.2033,240.9,-37.8,234.6,336.0,79.5,56.1,-273.9,0,0,2166,0,85,0,
1.2067,244.2,-25.8,243.3,338.4,82.2,56.4,-267.6,0,0,2172,0,86,0,
1.2100,246.6,-30.9,242.1,338.1,80.1,54.9,-273.3,0,0,2178,0,87,0,
1.2133,244.5,-29.7,243.6,339.3,85.5,53.1,-272.4,0,0,2184,0,88,0,
1.2167,243.0,-40.5,245.7,337.8,85.5,55.2,-270.0,0,0,2190,0,89,0,
1.2200,249.6,-26.1,238.5,338.1,87.3,65.1,-267.3,0,0,2196,0,90,0,
1.2233,243.9,-32.4,238.2,337.8,88.8,55.5,-269.4,0,0,2202,0,91,0,
1.2267,237.9,-40.5,242.1,334.8,85.8,49.5,-274.5,0,0,2208,0,92,0,
1.2300,242.7,-34.5,246.0,341.1,87.3,56.4,-276.6,0,0,2214,0,93,0,
1.2333,234.6,-45.0,241.8,336.9,88.2,44.7,-277.2,0,0,2220,0,94,0,
1.2367,228.6,-50.7,231.9,332.4,89.4,34.5,-284.7,0,0,2226,0,95,0,
1.2400,241.5,-37.8,243.3,339.3,60.0,60.3,-257.7,0,0,2232,0,96,0,
1.2433,227.4,-45.0,233.4,330.9,70.2,43.8,-275.7,0,0,2238,0,97,0,
1.2467,231.9,-47.4,230.4,327.9,64.8,38.4,-281.1,0,0,2244,0,98,0,
1.2500,220.8,-54.0,231.3,328.2,63.3,32.1,-283.8,0,0,2250,0,99,0,
1.2533,220.5,-58.2,218.7,322.5,61.8,30.3,-284.7,0,0,2256,0,100,0,
1.2567,214.2,-62.7,213.0,314.1,58.8,24.9,-288.6,0,0,2262,0,101,0,
1.2600,215.1,-63.0,215.7,314.7,59.7,27.0,-287.4,0,0,2268,0,102,0,
1.2633,213.0,-66.3,214.5,313.8,60.6,21.6,-291.0,0,0,2274,0,103,0,
1.2667,210.6,-71.4,216.6,315.3,63.3,21.0,-292.2,0,0,2280,0,104,0,
1.2700,209.1,-66.3,214.5,313.8,60.3,27.0,-296.4,0,0,2286,0,105,0,
1.2733,212.1,-66.6,216.3,316.5,63.0,27.9,-288.0,0,0,2292,0,106,0,
1.2767,210.0,-72.0,216.3,316.8,60.3,19.5,-286.8,0,0,2298,0,107,0,
1.2800,210.9,-59.4,221.7,318.6,58.5,18.3,-287.7,0,0,2304,0,108,0,
1.2833,207.3,-66.6,219.0,317.7,56.7,15.6,-292.2,0,0,2310,0,109,0,
1.2867,213.0,-64.8,216.0,316.5,63.0,25.8,-289.2,0,0,2316,0,110,0,
1.2900,218.7,-66.6,217.8,319.2,64.8,27.3,-276.3,0,0,2322,0,111,0,
1.2933,203.7,-79.2,204.0,309.3,78.3,0.6,-296.7,0,0,2328,0,112,0,
1.2967,218.7,-67.2,221.1,318.6,54.0,26.1,-280.2,0,0,2334,0,113,0,
1.3000,221.7,-60.0,225.3,320.1,52.8,30.9,-273.6,0,0,2340,0,114,0,
1.3033,224.4,-50.1,222.6,319.2,62.1,36.6,-267.3,0,0,2346,0,115,0,
1.3067,225.3,-49.8,217.5,322.8,64.2,31.2,-270.3,0,0,2352,0,116,0,
1.3100,217.2,-60.0,215.1,323.1,65.7,23.1,-287.1,0,0,2358,0,117,0,
1.3133,221.7,-51.0,224.1,327.6,69.9,31.5,-271.2,0,0,2364,0,118,0,
1.3167,235.2,-49.8,234.6,325.8,66.9,37.5,-261.6,0,0,2370,0,119,0,
1.3200,228.3,-47.4,219.6,327.6,69.6,35.1,-265.2,0,0,2376,0,120,0,
1.3233,229.2,-42.0,223.8,324.0,71.4,39.0,-258.3,0,0,2382,0,121,0,
1.3267,225.0,-53.7,222.0,322.5,67.8,33.9,-260.4,0,0,2388,0,122,0,
1.3300,224.1,-60.0,219.3,322.2,66.6,29.7,-267.0,0,0,2394,0,123,0,
1.3333,225.9,-60.0,218.1,323.7,68.1,29.7,-266.4,0,0,2400,0,124,0,
1.3367,222.0,-56.7,218.7,321.0,66.3,30.9,-272.4,0,0,2406,0,125,0,
1.3400,222.3,-53.1,220.2,320.1,66.6,30.9,-267.3,0,0,2412,0,126,0,
1.3433,227.4,-50.7,218.7,320.1,66.3,29.7,-263.4,0,0,2418,0,127,0,
1.3467,225.0,-53.4,222.6,324.3,75.0,34.8,-263.1,0,0,2424,0,128,0,
1.3500,218.7,-57.3,220.2,323.1,72.0,26.1,-272.1,0,0,2430,0,129,0,
1.3533,221.1,-50.1,224.7,326.4,71.7,32.7,-265.2,0,0,2436,0,130,0,
1.3567,226.8,-47.1,228.3,329.4,72.3,39.3,-257.4,0,0,2442,0,131,0,
1.3600,219.9,-48.6,228.0,329.7,73.5,39.3,-258.3,0,0,2448,0,132,0,
1.3633,230.4,-45.9,227.4,325.2,76.5,42.0,-262.5,0,0,2454,0,133,0,
1.3667,218.1,-55.2,220.5,328.8,75.9,34.8,-267.6,0,0,2460,0,134,0,
1.3700,208.2,-61.5,215.1,321.9,83.1,18.9,-277.8,0,0,2466,0,135,0,
1.3733,225.3,-41.7,230.1,332.4,87.6,35.1,-262.5,0,0,2472,0,136,0,
1.3767,231.6,-33.6,232.2,336.0,63.0,54.6,-250.2,0,0,2478,0,137,0,
1.3800,227.1,-41.4,226.8,332.1,75.3,39.6,-264.0,0,0,2484,0,138,0,
1.3833,231.3,-41.1,235.2,335.7,69.6,39.6,-267.9,0,0,2490,0,139,0,
1.3867,230.4,-34.5,231.9,332.4,72.3,40.5,-267.0,0,0,2496,0,140,0,
1.3900,229.8,-42.3,233.7,329.7,70.2,41.7,-265.2,0,0,2502,0,141,0,
1.3933,227.4,-44.1,231.6,327.0,72.9,40.5,-261.3,0,0,2508,0,142,0,
1.3967,226.8,-40.8,230.7,330.9,72.3,36.9,-264.3,0,0,2514,0,143,0,
1.4000,224.7,-42.6,233.1,332.1,74.4,35.7,-269.4,0,0,2520,0,144,0,
1.4033,227.1,-33.6,235.2,336.3,77.1,33.9,-267.3,0,0,2526,0,145,0,
1.4067,236.7,-37.5,234.6,335.7,78.0,36.3,-265.8,0,0,2532,0,146,0,
1.4100,230.4,-38.7,233.4,333.3,80.4,43.8,-261.3,0,0,2538,0,147,0,
1.4133,234.9,-39.9,235.8,330.0,78.6,41.1,-262.8,0,0,2544,0,148,0,
1.4167,225.3,-48.3,230.4,330.6,76.8,37.5,-277.8,0,0,2550,0,149,0,
1.4200,224.7,-42.9,232.5,330.6,69.6,25.8,-276.3,0,0,2556,0,150,0,
1.4233,218.1,-44.4,225.3,326.4,82.2,15.6,-284.1,0,0,2562,0,151,0,
1.4267,215.4,-51.3,218.1,327.0,79.2,26.7,-283.8,0,0,2568,0,152,0,
1.4300,229.2,-37.8,235.5,336.3,60.9,51.6,-266.4,0,0,2574,0,153,0,
1.4333,223.8,-50.1,222.0,327.0,74.4,32.7,-280.2,0,0,2580,0,154,0,
1.4367,221.1,-48.0,225.0,328.2,69.6,31.8,-277.5,0,0,2586,0,155,0,
1.4400,217.8,-50.1,225.3,331.5,71.4,34.8,-267.3,0,0,2592,0,156,0,
1.4433,219.0,-44.1,236.1,335.4,72.0,33.9,-267.9,0,0,2598,0,157,0,
1.4467,221.4,-49.8,221.1,330.3,69.0,31.2,-275.7,0,0,2604,0,158,0,
1.4500,220.5,-50.7,220.2,327.3,69.9,30.6,-280.5,0,0,2610,0,159,0,
1.4533,224.7,-50.7,223.2,332.7,71.4,25.5,-278.7,0,0,2616,0,160,0,
1.4567,217.2,-50.4,221.1,329.4,73.2,30.6,-281.1,0,0,2622,0,161,0,
1.4600,218.1,-48.0,218.7,325.8,69.9,28.5,-285.6,0,0,2628,0,162,0,
1.4633,228.0,-39.6,223.2,329.7,72.0,34.8,-278.4,0,0,2634,0,163,0,
1.4667,229.5,-43.5,227.7,334.2,73.5,35.1,-275.1,0,0,2640,0,164,0,
1.4700,226.2,-44.4,226.5,333.9,73.5,34.2,-282.0,0,0,2646,0,165,0,
1.4733,235.2,-37.2,226.8,336.0,71.7,34.5,-277.2,0,0,2652,0,166,0,
1.4767,235.2,-37.2,228.6,332.4,73.5,44.1,-273.0,0,0,2658,0,167,0,
1.4800,238.2,-33.9,227.7,333.6,76.2,46.8,-264.6,0,0,2664,0,168,0,
1.4833,236.4,-43.2,226.5,334.5,74.7,41.4,-275.1,0,0,2670,0,169,0,
1.4867,237.6,-43.8,225.3,333.3,76.5,48.3,-270.9,0,0,2676,0,170,0,
1.4900,243.9,-37.5,229.2,335.7,74.7,41.1,-272.4,0,0,2682,0,171,0,
1.4933,238.2,-39.6,228.3,339.6,76.8,37.5,-271.5,0,0,2688,0,172,0,
1.4967,245.1,-29.4,235.2,336.6,76.8,37.8,-269.7,0,0,2694,0,173,0,
1.5000,241.8,-34.8,231.0,334.2,78.6,36.3,-272.1,0,0,2700,0,174,0,
1.5033,241.5,-35.7,233.4,338.7,78.6,38.7,-272.4,0,0,2706,0,175,0,
1.5067,225.6,-64.2,222.3,327.3,92.7,14.4,-288.9,0,0,2712,0,176,0,
1.5100,249.3,-32.1,233.7,337.8,67.2,46.8,-267.0,0,0,2718,0,177,0,
1.5133,251.1,-33.9,235.2,337.8,72.9,46.2,-265.8,0,0,2724,0,178,0,
1.5167,244.5,-32.7,232.8,340.2,74.4,40.8,-274.5,0,0,2730,0,179,0,
1.5200,246.9,-29.1,233.7,342.3,76.8,42.0,-271.5,0,0,2736,0,180,0,
1.5233,243.9,-36.6,231.9,340.5,78.0,39.3,-274.5,0,0,2742,0,181,0,
1.5267,249.0,-30.0,237.6,338.1,77.4,40.8,-269.4,0,0,2748,0,182,0,
1.5300,253.2,-30.3,233.7,340.2,78.0,41.4,-272.1,0,0,2754,0,183,0,
1.5333,241.8,-33.9,231.3,339.3,79.5,40.2,-277.2,0,0,2760,0,184,0,
1.5367,243.3,-33.9,232.8,335.1,80.1,39.6,-274.8,0,0,2766,0,185,0,
1.5400,236.1,-40.2,227.4,332.7,78.0,36.0,-283.5,0,0,2772,0,186,0,
1.5433,235.5,-42.0,223.8,333.9,80.1,42.0,-277.5,0,0,2778,0,187,0,
1.5467,239.1,-41.4,227.7,332.7,79.8,46.8,-276.6,0,0,2784,0,188,0,
1.5500,248.1,-38.7,229.5,333.0,80.1,41.1,-276.6,0,0,2790,0,189,0,
1.5533,243.0,-37.2,233.4,341.4,84.6,36.9,-273.6,0,0,2796,0,190,0,
1.5567,237.0,-34.2,230.7,336.3,80.1,42.0,-275.4,0,0,2802,0,191,0,
1.5600,250.5,-41.1,231.0,342.3,82.5,39.3,-266.7,0,0,2808,0,192,0,
1.5633,252.6,-37.5,236.7,342.3,82.5,46.5,-264.3,0,0,2814,0,193,0,
1.5667,249.9,-32.4,237.0,340.5,81.6,38.4,-268.5,0,0,2820,0,194,0,
1.5700,245.4,-34.8,230.4,339.3,82.2,39.0,-273.6,0,0,2826,0,195,0,
1.5733,246.9,-31.8,223.2,340.8,82.5,45.0,-274.2,0,0,2832,0,196,0,
1.5767,243.3,-35.4,230.1,340.5,80.7,49.8,-276.0,0,0,2838,0,197,0,
1.5800,254.1,-36.6,229.5,342.0,82.5,38.4,-280.5,0,0,2844,0,198,0,
1.5833,250.8,-37.8,233.7,341.7,82.2,37.5,-277.8,0,0,2850,0,199,0,
1.5867,248.4,-34.5,232.8,341.7,81.9,35.4,-283.8,0,0,2856,0,200,0,
1.5900,246.3,-48.6,230.7,339.3,92.4,29.4,-282.0,0,0,2862,0,201,0,
1.5933,244.5,-40.2,227.1,339.6,96.3,33.6,-281.7,0,0,2868,0,202,0,
1.5967,254.4,-14.1,244.2,349.5,71.4,60.3,-270.0,0,0,2874,0,203,0,
1.6000,256.8,-17.7,236.7,342.9,85.5,44.4,-276.0,0,0,2880,0,204,0,
1.6033,252.6,-27.9,240.3,348.6,81.9,43.5,-280.2,0,0,2886,0,205,0,
1.6067,247.8,-32.7,236.1,344.4,87.0,42.3,-281.7,0,0,2892,0,206,0,
1.6100,256.2,-32.1,243.6,345.0,85.5,44.7,-275.1,0,0,2898,0,207,0,
1.6133,246.9,-35.7,239.1,340.2,84.9,43.5,-275.4,0,0,2904,0,208,0,
1.6167,255.6,-21.6,250.5,347.1,87.6,49.2,-268.2,0,0,2910,0,209,0,
1.6200,252.6,-20.1,246.0,345.3,84.9,51.6,-268.2,0,0,2916,0,210,0,
1.6233,261.0,-20.7,247.8,344.7,88.2,54.9,-261.6,0,0,2922,0,211,0,
1.6267,250.8,-26.7,246.0,339.3,81.3,47.7,-272.1,0,0,2928,0,212,0,
1.6300,250.5,-30.6,236.1,340.5,86.4,49.8,-276.9,0,0,2934,0,213,0,
1.6333,247.5,-34.2,232.5,334.8,83.1,52.2,-281.1,0,0,2940,0,214,0,
1.6367,260.4,-24.9,239.1,339.9,90.0,56.1,-267.6,0,0,2946,0,215,0,
1.6400,253.8,-20.1,241.5,342.0,90.6,61.5,-271.8,0,0,2952,0,216,0,
1.6433,251.1,-21.3,242.7,340.2,88.8,53.1,-274.5,0,0,2958,0,217,0,
1.6467,252.9,-23.1,242.1,340.2,89.7,57.9,-267.3,0,0,2964,0,218,0,
1.6500,261.3,-16.5,246.6,345.9,86.4,60.0,-260.4,0,0,2970,0,219,0,
1.6533,237.9,-31.8,230.1,337.8,101.1,29.7,-280.8,0,0,2976,0,220,0,
1.6567,255.9,-21.3,234.3,343.2,85.2,56.4,-270.6,0,0,2982,0,221,0,
1.6600,264.6,-24.3,241.8,346.2,75.6,64.8,-260.4,0,0,2988,0,222,0,
1.6633,251.7,-29.7,238.2,343.8,85.5,55.2,-277.5,0,0,2994,0,223,0,
1.6667,251.4,-32.7,239.7,344.4,83.4,56.7,-278.4,0,0,3000,0,224,0,
1.6700,252.9,-27.0,242.4,348.0,84.9,49.8,-276.3,0,0,3006,0,225,0,
1.6733,246.6,-22.5,243.3,348.0,84.9,45.9,-279.3,0,0,3012,0,226,0,
1.6767,251.7,-19.5,234.0,346.5,89.1,52.2,-275.4,0,0,3018,0,227,0,
1.6800,249.6,-23.4,241.5,344.1,89.1,53.7,-279.3,0,0,3024,0,228,0,
1.6833,249.3,-32.4,236.4,344.4,87.0,52.2,-287.4,0,0,3030,0,229,0,
1.6867,242.4,-28.8,243.0,345.6,86.1,51.9,-278.7,0,0,3036,0,230,0,
1.6900,250.5,-19.2,242.1,344.1,85.5,50.1,-281.4,0,0,3042,0,231,0,
1.6933,243.0,-31.5,238.5,342.9,80.4,45.9,-294.3,0,0,3048,0,232,0,
1.6967,244.5,-33.6,237.9,345.6,84.6,45.3,-290.7,0,0,3054,0,233,0,
1.7000,247.5,-33.3,239.1,344.7,88.8,52.5,-284.4,0,0,3060,0,234,0,
1.7033,246.3,-29.4,235.5,344.1,86.7,51.0,-289.2,0,0,3066,0,235,0,
1.7067,245.4,-26.1,235.5,341.4,87.6,50.4,-284.7,0,0,3072,0,236,0,
1.7100,246.9,-26.4,236.7,345.9,88.5,52.2,-284.1,0,0,3078,0,237,0,
1.7133,236.7,-38.1,232.5,340.5,87.0,46.2,-290.4,0,0,3084,0,238,0,
1.7167,240.3,-33.9,235.2,341.1,84.6,48.0,-290.7,0,0,3090,0,239,0,
1.7200,230.7,-39.0,227.7,339.3,86.7,48.9,-290.1,0,0,3096,0,240,0,
1.7233,226.2,-38.4,235.5,342.3,84.9,45.9,-296.7,0,0,3102,0,241,0,
1.7267,236.7,-37.2,239.1,341.7,84.0,44.4,-284.4,0,0,3108,0,242,0,
1.7300,235.2,-38.4,233.7,338.7,80.1,42.3,-287.7,0,0,3114,0,243,0,
1.7333,231.3,-37.8,237.9,340.5,83.4,39.6,-287.7,0,0,3120,0,244,0,
1.7367,244.5,-33.9,244.8,343.8,83.4,42.9,-287.7,0,0,3126,0,245,0,
1.7400,239.1,-31.2,236.7,345.9,83.1,41.4,-289.8,0,0,3132,0,246,0,
1.7433,239.4,-39.6,233.7,343.5,80.7,51.9,-287.4,0,0,3138,0,247,0,
1.7467,241.5,-33.0,238.2,344.1,81.3,44.1,-288.9,0,0,3144,0,248,0,
1.7500,234.9,-30.6,236.1,339.0,84.3,36.0,-291.0,0,0,3150,0,249,0,
1.7533,234.3,-35.1,229.5,336.3,99.3,32.4,-298.5,0,0,3156,0,250,0,
1.7567,248.4,-28.5,240.3,344.7,64.8,63.3,-279.9,0,0,3162,0,251,0,
1.7600,238.2,-34.8,232.2,341.1,75.6,50.4,-295.5,0,0,3168,0,252,0,
1.7633,233.4,-41.1,230.7,341.7,72.9,45.9,-298.2,0,0,3174,0,253,0,
1.7667,235.5,-41.7,229.2,340.8,72.9,39.6,-300.6,0,0,3180,0,254,0,
1.7700,233.1,-37.2,227.1,338.4,76.8,39.3,-293.4,0,0,3186,0,255,0,
1.7733,234.6,-38.4,228.9,338.4,75.9,38.4,-300.3,0,0,3192,0,0,0,
1.7767,228.3,-38.1,232.5,339.0,74.4,37.8,-301.2,0,0,3198,0,1,0,
1.7800,225.3,-50.1,234.6,341.1,75.3,41.1,-305.4,0,0,3204,0,2,0,
1.7833,228.3,-49.2,227.4,339.6,78.6,52.5,-296.1,0,0,3210,0,3,0,
1.7867,237.3,-45.6,231.9,341.7,81.6,47.4,-310.8,0,0,3216,0,4,0,
1.7900,233.4,-42.0,232.5,342.3,77.1,42.6,-306.9,0,0,3222,0,5,0,
1.7933,233.4,-40.5,228.0,339.9,77.1,49.5,-303.3,0,0,3228,0,6,0,
1.7967,239.1,-33.3,234.9,346.2,82.2,49.8,-298.2,0,0,3234,0,7,0,
1.8000,234.0,-41.7,235.2,341.7,80.1,39.9,-305.7,0,0,3240,0,8,0,
1.8033,228.6,-50.7,230.7,336.3,81.3,42.9,-312.0,0,0,3246,0,9,0,
1.8067,230.4,-39.9,231.9,338.7,80.4,48.9,-310.2,0,0,3252,0,10,0,
1.8100,237.3,-34.2,226.8,341.1,83.1,42.6,-298.5,0,0,3258,0,11,0,
1.8133,236.7,-37.5,231.9,342.3,80.4,47.7,-302.4,0,0,3264,0,12,0,
1.8167,238.8,-48.6,233.4,345.3,80.1,45.0,-308.7,0,0,3270,0,13,0,
1.8200,240.3,-39.9,232.8,340.2,78.6,50.1,-303.3,0,0,3276,0,14,0,
1.8233,240.9,-39.0,231.9,340.8,80.7,48.3,-305.4,0,0,3282,0,15,0,
1.8267,233.7,-43.2,229.8,339.0,92.1,39.9,-310.2,0,0,3288,0,16,0,
1.8300,232.8,-52.2,224.7,335.4,92.4,40.5,-311.4,0,0,3294,0,17,0,
1.8333,245.4,-40.8,237.0,342.6,68.1,71.1,-297.6,0,0,3300,0,18,0,
1.8367,236.4,-46.5,229.8,339.3,78.9,51.3,-311.7,0,0,3306,0,19,0,
1.8400,234.0,-42.6,231.0,339.9,75.3,51.0,-307.5,0,0,3312,0,20,0,
1.8433,238.8,-40.2,229.5,338.7,76.8,52.5,-303.9,0,0,3318,0,21,0,
1.8467,233.1,-52.2,228.0,339.0,73.2,49.5,-308.1,0,0,3324,0,22,0,
1.8500,234.3,-44.4,234.0,343.2,73.5,50.7,-308.1,0,0,3330,0,23,0,
1.8533,239.7,-33.9,231.9,343.2,72.6,46.8,-303.3,0,0,3336,0,24,0,
1.8567,234.3,-35.7,231.0,340.5,70.8,50.1,-304.5,0,0,3342,0,25,0,
1.8600,243.0,-34.8,235.2,346.8,75.6,51.3,-306.0,0,0,3348,0,26,0,
1.8633,237.3,-42.6,233.7,345.3,79.5,49.2,-311.1,0,0,3354,0,27,0,
1.8667,227.1,-47.4,227.7,343.8,74.7,40.2,-316.5,0,0,3360,0,28,0,
1.8700,235.5,-44.1,231.3,344.1,76.2,44.7,-309.6,0,0,3366,0,29,0,
1.8733,237.6,-42.3,233.7,342.9,77.1,55.2,-310.2,0,0,3372,0,30,0,
1.8767,235.2,-37.8,235.2,342.3,75.3,57.9,-304.5,0,0,3378,0,31,0,
1.8800,236.4,-45.9,236.7,344.7,78.3,54.0,-310.2,0,0,3384,0,32,0,
1.8833,237.0,-45.9,231.0,341.4,76.2,42.9,-311.7,0,0,3390,0,33,0,
1.8867,246.0,-38.1,236.1,345.6,79.2,45.6,-307.2,0,0,3396,0,34,0,
1.8900,240.9,-38.1,237.9,345.9,82.5,45.3,-311.1,0,0,3402,0,35,0,
1.8933,235.2,-44.7,232.2,341.4,80.1,42.3,-314.4,0,0,3408,0,36,0,
1.8967,229.8,-49.2,228.0,333.9,101.1,25.8,-325.5,0,0,3414,0,37,0,
1.9000,235.8,-42.9,233.4,336.3,77.7,49.2,-310.8,0,0,3420,0,38,0,
1.9033,244.2,-33.6,242.1,341.7,75.3,61.2,-302.4,0,0,3426,0,39,0,
1.9067,238.5,-46.5,237.9,333.3,78.3,51.0,-304.2,0,0,3432,0,40,0,
1.9100,245.4,-40.8,240.3,338.1,81.9,46.5,-297.3,0,0,3438,0,41,0,
1.9133,237.3,-46.2,234.6,337.2,79.2,40.5,-306.0,0,0,3444,0,42,0,
1.9167,238.2,-48.3,233.4,334.8,81.0,44.7,-308.4,0,0,3450,0,43,0,
1.9200,243.0,-37.8,236.1,339.6,78.6,45.3,-303.9,0,0,3456,0,44,0,
1.9233,251.1,-38.7,241.5,339.3,81.6,47.7,-297.6,0,0,3462,0,45,0,
1.9267,240.6,-45.6,245.4,338.7,78.3,41.4,-304.8,0,0,3468,0,46,0,
1.9300,241.8,-40.8,239.1,339.3,78.0,42.9,-294.6,0,0,3474,0,47,0,
1.9333,253.2,-33.3,246.6,341.7,84.0,45.9,-291.0,0,0,3480,0,48,0,
1.9367,252.9,-33.9,246.0,344.4,82.5,43.8,-292.2,0,0,3486,0,49,0,
1.9400,255.3,-43.2,244.8,340.8,81.3,47.1,-285.3,0,0,3492,0,50,0,
1.9433,261.0,-34.8,248.1,338.7,84.0,53.1,-278.1,0,0,3498,0,51,0,
1.9467,255.3,-37.2,252.3,341.4,83.1,48.3,-281.7,0,0,3504,0,52,0,
1.9500,253.8,-40.2,255.0,342.0,88.5,54.9,-285.9,0,0,3510,0,53,0,
1.9533,252.6,-39.9,252.3,338.1,78.9,40.5,-288.9,0,0,3516,0,54,0,
1.9567,250.2,-38.4,241.5,335.1,80.7,44.7,-287.1,0,0,3522,0,55,0,
1.9600,249.0,-35.7,247.8,337.8,82.8,42.0,-288.0,0,0,3528,0,56,0,
1.9633,252.3,-35.1,245.7,335.4,80.1,43.8,-283.8,0,0,3534,0,57,0,
1.9667,252.6,-36.6,249.9,340.5,81.3,45.3,-274.2,0,0,3540,0,58,0,
1.9700,247.5,-50.7,248.4,337.2,78.0,42.9,-285.0,0,0,3546,0,59,0,
1.9733,249.0,-39.6,243.3,336.3,76.2,39.9,-276.9,0,0,3552,0,60,0,
1.9767,242.4,-41.7,234.6,337.8,79.8,39.6,-287.7,0,0,3558,0,61,0,
1.9800,252.6,-33.3,238.5,343.2,80.7,49.5,-275.4,0,0,3564,0,62,0,
1.9833,251.7,-32.4,242.4,341.1,83.1,53.7,-277.8,0,0,3570,0,63,0,
1.9867,249.6,-36.3,242.4,339.9,79.5,41.1,-278.4,0,0,3576,0,64,0,
1.9900,240.0,-51.9,231.9,333.9,99.9,22.5,-295.2,0,0,3582,0,65,0,
1.9933,254.1,-33.6,244.2,346.2,71.1,53.4,-273.6,0,0,3588,0,66,0,
1.9967,245.4,-41.7,243.3,339.3,77.4,42.3,-278.7,0,0,3594,0,67,0,
2.0000,243.6,-33.6,244.2,341.1,77.1,41.1,-277.2,0,0,3600,0,68,0,
2.0033,241.2,-40.8,244.2,338.1,76.2,42.6,-283.8,0,0,3606,0,69,0,
2.0067,240.0,-43.5,246.9,340.5,76.5,42.0,-288.0,0,0,3612,0,70,0,
2.0100,244.2,-39.3,240.0,342.3,81.0,42.3,-278.1,0,0,3618,0,71,0,
2.0133,247.8,-30.3,250.8,344.7,83.1,50.4,-275.4,0,0,3624,0,72,0,
2.0167,236.4,-44.7,242.7,338.7,81.3,41.7,-283.2,0,0,3630,0,73,0,
2.0200,245.4,-43.5,242.7,336.9,84.6,50.4,-278.1,0,0,3636,0,74,0,
2.0233,248.7,-39.0,244.8,342.3,83.4,49.2,-276.6,0,0,3642,0,75,0,
2.0267,237.6,-45.3,239.7,337.5,79.8,41.4,-282.9,0,0,3648,0,76,0,
2.0300,240.9,-37.2,243.0,343.2,79.5,33.9,-282.9,0,0,3654,0,77,0,
2.0333,248.1,-36.6,245.7,344.1,84.0,39.6,-276.9,0,0,3660,0,78,0,
2.0367,247.2,-26.7,252.3,348.6,84.0,39.9,-271.8,0,0,3666,0,79,0,
2.0400,240.0,-36.9,244.8,341.4,80.4,38.4,-281.1,0,0,3672,0,80,0,
2.0433,255.3,-27.0,246.9,344.1,85.8,43.2,-273.3,0,0,3678,0,81,0,
2.0467,250.5,-30.3,246.9,340.2,81.0,43.2,-277.2,0,0,3684,0,82,0,
2.0500,246.0,-36.3,241.2,337.8,78.9,36.6,-279.3,0,0,3690,0,83,0,
2.0533,245.7,-37.5,241.5,337.8,79.5,36.9,-280.5,0,0,3696,0,84,0,
2.0567,245.4,-37.5,240.6,337.5,80.7,43.8,-271.5,0,0,3702,0,85,0,
2.0600,245.1,-44.7,241.8,338.7,81.9,45.3,-278.1,0,0,3708,0,86,0,
2.0633,244.2,-42.6,236.1,336.6,76.2,36.0,-276.9,0,0,3714,0,87,0,
2.0667,247.5,-44.4,240.6,335.1,78.6,41.1,-276.3,0,0,3720,0,88,0,
2.0700,240.0,-38.1,238.2,331.8,92.7,19.5,-284.4,0,0,3726,0,89,0,
2.0733,243.0,-38.1,243.3,336.9,79.2,38.4,-275.4,0,0,3732,0,90,0,
2.0767,250.2,-29.7,248.7,339.0,64.8,48.3,-264.9,0,0,3738,0,91,0,
2.0800,247.2,-53.7,236.7,333.0,76.8,45.9,-274.8,0,0,3744,0,92,0,
2.0833,244.8,-58.2,234.9,330.9,74.7,49.5,-270.3,0,0,3750,0,93,0,
2.0867,246.9,-52.5,235.8,328.8,76.2,42.0,-277.8,0,0,3756,0,94,0,
2.0900,245.1,-45.3,236.7,331.8,76.8,37.8,-276.0,0,0,3762,0,95,0,
2.0933,247.8,-41.4,236.4,332.4,77.4,41.1,-273.6,0,0,3768,0,96,0,
2.0967,248.4,-32.1,241.5,336.9,80.7,46.2,-272.1,0,0,3774,0,97,0,
2.1000,255.6,-29.7,240.3,339.9,83.1,49.5,-268.8,0,0,3780,0,98,0,
2.1033,250.8,-23.4,243.9,339.3,86.7,57.6,-268.5,0,0,3786,0,99,0,
2.1067,247.5,-31.5,240.9,336.3,80.1,54.6,-271.8,0,0,3792,0,100,0,
2.1100,249.6,-34.5,240.0,338.4,82.8,45.9,-280.8,0,0,3798,0,101,0,
2.1133,248.1,-35.7,240.6,337.2,79.8,46.2,-273.6,0,0,3804,0,102,0,
2.1167,251.7,-30.9,243.3,339.0,83.7,50.4,-277.8,0,0,3810,0,103,0,
2.1200,256.5,-28.5,237.3,340.8,84.6,50.7,-278.4,0,0,3816,0,104,0,
2.1233,253.2,-27.9,240.9,339.6,85.8,53.1,-281.4,0,0,3822,0,105,0,
2.1267,247.8,-32.4,239.1,337.8,84.3,48.9,-278.7,0,0,3828,0,106,0,
2.1300,249.3,-30.3,241.5,340.2,86.7,57.0,-276.3,0,0,3834,0,107,0,
2.1333,259.8,-28.2,247.8,341.7,85.8,54.0,-267.3,0,0,3840,0,108,0,
2.1367,252.3,-32.1,241.8,340.5,84.6,51.3,-273.9,0,0,3846,0,109,0,
2.1400,247.2,-41.1,238.5,334.2,96.6,35.4,-282.6,0,0,3852,0,110,0,
2.1433,241.2,-38.1,240.0,334.8,97.8,44.1,-279.0,0,0,3858,0,111,0,
2.1467,268.5,-13.8,258.9,353.1,76.8,66.9,-262.5,0,0,3864,0,112,0,
2.1500,255.6,-33.3,246.6,344.4,91.5,56.4,-266.7,0,0,3870,0,113,0,
2.1533,254.4,-27.0,245.1,340.8,84.6,52.8,-268.5,0,0,3876,0,114,0,
2.1567,257.1,-26.1,243.6,339.0,87.6,55.8,-268.8,0,0,3882,0,115,0,
2.1600,257.7,-33.9,247.8,341.4,86.1,51.3,-272.1,0,0,3888,0,116,0,
2.1633,252.3,-36.0,240.0,335.1,86.1,52.2,-270.9,0,0,3894,0,117,0,
2.1667,252.9,-41.4,239.4,335.1,86.4,51.9,-268.5,0,0,3900,0,118,0,
2.1700,249.9,-34.2,244.8,333.3,83.1,54.0,-275.4,0,0,3906,0,119,0,
2.1733,250.5,-35.4,244.8,337.2,87.0,55.8,-274.8,0,0,3912,0,120,0,
2.1767,249.9,-36.0,245.1,339.0,82.5,52.5,-276.3,0,0,3918,0,121,0,
2.1800,250.5,-25.5,242.1,337.2,82.5,53.4,-275.1,0,0,3924,0,122,0,
2.1833,255.3,-27.3,245.1,342.0,82.8,51.6,-277.5,0,0,3930,0,123,0,
2.1867,257.1,-28.8,243.9,343.2,88.2,59.7,-273.0,0,0,3936,0,124,0,
2.1900,258.6,-23.1,251.1,342.3,89.1,66.3,-280.2,0,0,3942,0,125,0,
2.1933,256.2,-29.7,247.8,343.5,91.2,69.6,-271.2,0,0,3948,0,126,0,
2.1967,261.6,-32.4,249.0,341.4,86.4,52.5,-277.8,0,0,3954,0,127,0,
2.2000,256.5,-34.5,242.1,343.2,88.8,59.7,-270.3,0,0,3960,0,128,0,
2.2033,251.7,-36.9,238.5,337.2,90.9,44.1,-276.9,0,0,3966,0,129,0,
2.2067,239.4,-45.9,234.9,332.7,100.8,34.2,-292.2,0,0,3972,0,130,0,
2.2100,259.8,-28.8,251.4,340.2,70.5,65.4,-273.3,0,0,3978,0,131,0,
2.2133,248.1,-40.2,237.6,337.5,85.2,53.4,-276.3,0,0,3984,0,132,0,
2.2167,255.0,-48.0,243.6,336.3,81.3,55.5,-270.6,0,0,3990,0,133,0,
2.2200,250.8,-40.2,246.6,340.5,83.1,48.9,-276.3,0,0,3996,0,134,0,
2.2233,256.2,-27.6,246.9,340.8,88.8,54.3,-270.6,0,0,4002,0,135,0,
2.2267,243.6,-43.5,241.8,335.7,85.5,44.4,-279.0,0,0,4008,0,136,0,
2.2300,253.2,-31.2,245.4,342.0,85.8,54.0,-274.8,0,0,4014,0,137,0,
2.2333,253.8,-32.1,244.5,341.4,85.2,54.0,-281.7,0,0,4020,0,138,0,
2.2367,249.3,-36.3,240.6,342.6,82.8,54.0,-275.1,0,0,4026,0,139,0,
2.2400,248.1,-39.6,241.8,342.9,82.5,48.9,-288.0,0,0,4032,0,140,0,
2.2433,249.9,-39.6,242.1,343.2,84.9,48.9,-291.3,0,0,4038,0,141,0,
2.2467,241.5,-44.4,238.2,336.6,81.6,44.4,-289.8,0,0,4044,0,142,0,
2.2500,243.6,-44.1,242.1,341.7,84.0,45.9,-288.3,0,0,4050,0,143,0,
2.2533,251.1,-41.4,243.9,340.2,87.9,56.7,-277.2,0,0,4056,0,144,0,
2.2567,249.0,-45.0,244.5,339.3,83.7,48.9,-280.2,0,0,4062,0,145,0,
2.2600,250.5,-35.7,244.8,341.4,86.7,45.9,-279.6,0,0,4068,0,146,0,
2.2633,246.3,-42.6,246.0,337.2,87.0,45.0,-283.5,0,0,4074,0,147,0,
2.2667,249.9,-33.9,240.6,339.0,87.6,51.6,-279.3,0,0,4080,0,148,0,
2.2700,247.2,-35.4,233.4,337.5,91.2,51.6,-280.8,0,0,4086,0,149,0,
2.2733,249.6,-33.6,239.1,341.4,91.8,52.8,-283.5,0,0,4092,0,150,0,
2.2767,233.7,-43.5,231.3,335.7,110.4,34.5,-298.2,0,0,4098,0,151,0,
2.2800,246.3,-38.1,245.7,346.5,87.6,56.4,-285.6,0,0,4104,0,152,0,
2.2833,249.9,-37.5,247.2,344.7,87.3,71.7,-276.0,0,0,4110,0,153,0,
2.2867,253.8,-29.4,242.7,342.6,88.2,52.8,-276.6,0,0,4116,0,154,0,
2.2900,251.7,-26.1,240.9,340.2,87.9,51.3,-276.9,0,0,4122,0,155,0,
2.2933,240.9,-45.3,235.8,337.5,86.4,45.9,-294.3,0,0,4128,0,156,0,
2.2967,234.3,-52.8,236.4,338.1,87.3,44.4,-300.0,0,0,4134,0,157,0,
2.3000,245.4,-34.2,243.0,336.3,87.0,51.9,-282.3,0,0,4140,0,158,0,
2.3033,252.9,-28.8,243.3,339.9,91.5,54.6,-276.9,0,0,4146,0,159,0,
2.3067,241.2,-43.5,236.7,339.0,91.5,51.0,-280.2,0,0,4152,0,160,0,
2.3100,245.7,-27.3,246.6,343.5,95.7,47.7,-278.7,0,0,4158,0,161,0,
2.3133,255.0,-21.9,253.5,344.4,98.7,50.4,-280.2,0,0,4164,0,162,0,
2.3167,239.1,-38.4,245.1,336.3,90.3,42.9,-296.1,0,0,4170,0,163,0,
2.3200,248.1,-34.5,245.7,339.6,93.9,51.3,-283.2,0,0,4176,0,164,0,
2.3233,245.7,-47.7,235.8,335.7,93.6,52.5,-290.1,0,0,4182,0,165,0,
2.3267,246.0,-40.8,242.1,336.3,93.9,46.2,-288.6,0,0,4188,0,166,0,
2.3300,240.6,-48.0,234.9,334.2,111.9,36.0,-302.4,0,0,4194,0,167,0,
2.3333,252.0,-30.9,250.2,343.2,80.1,64.5,-282.3,0,0,4200,0,168,0,
2.3367,244.5,-37.8,242.1,338.7,88.8,62.1,-291.6,0,0,4206,0,169,0,
2.3400,253.5,-36.0,245.1,343.2,90.6,53.4,-289.5,0,0,4212,0,170,0,
2.3433,246.0,-35.7,241.8,341.1,91.5,54.0,-297.6,0,0,4218,0,171,0,
2.3467,255.0,-31.5,243.3,339.0,86.4,51.9,-288.3,0,0,4224,0,172,0,
2.3500,246.3,-35.7,238.5,337.8,89.1,47.1,-295.2,0,0,4230,0,173,0,
2.3533,252.9,-35.1,239.7,342.3,92.1,52.8,-292.2,0,0,4236,0,174,0,
2.3567,248.7,-39.6,239.1,340.2,90.3,47.7,-300.6,0,0,4242,0,175,0,
2.3600,254.7,-41.1,241.2,339.3,92.7,52.2,-290.1,0,0,4248,0,176,0,
2.3633,253.5,-43.8,240.0,339.6,90.3,54.0,-291.3,0,0,4254,0,177,0,
2.3667,247.5,-37.2,242.4,336.6,92.7,50.1,-300.6,0,0,4260,0,178,0,
2.3700,245.1,-43.8,237.0,339.0,92.4,47.4,-300.9,0,0,4266,0,179,0,
2.3733,248.7,-44.1,235.2,339.6,93.6,51.0,-296.4,0,0,4272,0,180,0,
2.3767,247.5,-48.9,238.8,337.8,90.0,47.4,-299.7,0,0,4278,0,181,0,
2.3800,240.0,-45.0,231.9,335.4,89.7,46.8,-297.0,0,0,4284,0,182,0,
2.3833,248.7,-39.3,237.6,337.5,90.3,42.3,-312.6,0,0,4290,0,183,0,
2.3867,246.0,-35.4,237.0,335.7,89.1,46.2,-303.0,0,0,4296,0,184,0,
2.3900,243.0,-38.1,240.0,337.8,88.8,48.3,-306.0,0,0,4302,0,185,0,
2.3933,242.7,-44.7,232.5,335.7,84.9,45.9,-312.0,0,0,4308,0,186,0,
2.3967,243.0,-45.6,231.0,335.1,93.0,34.8,-315.9,0,0,4314,0,187,0,
2.4000,242.7,-41.4,227.7,333.3,99.9,34.8,-311.1,0,0,4320,0,188,0,
2.4033,258.0,-19.2,241.2,345.0,72.9,63.6,-291.0,0,0,4326,0,189,0,
2.4067,246.6,-41.4,230.7,336.9,84.0,50.1,-304.5,0,0,4332,0,190,0,
2.4100,247.2,-40.2,238.8,342.0,86.1,54.6,-300.6,0,0,4338,0,191,0,
2.4133,243.9,-38.7,237.9,340.5,86.7,44.4,-301.8,0,0,4344,0,192,0,
2.4167,247.8,-31.5,240.9,341.4,85.8,47.7,-293.7,0,0,4350,0,193,0,
2.4200,250.2,-33.6,241.8,342.6,91.2,51.3,-294.3,0,0,4356,0,194,0,
2.4233,249.3,-36.6,244.8,346.2,93.0,53.1,-288.3,0,0,4362,0,195,0,
2.4267,247.8,-39.6,247.2,345.3,89.1,48.6,-298.5,0,0,4368,0,196,0,
2.4300,255.9,-32.7,237.6,346.2,93.0,51.3,-294.0,0,0,4374,0,197,0,
2.4333,245.7,-28.8,242.1,345.3,94.2,48.9,-300.9,0,0,4380,0,198,0,
2.4367,240.6,-39.6,235.8,341.4,92.4,44.7,-309.9,0,0,4386,0,199,0,
2.4400,244.5,-40.2,238.8,348.6,94.8,45.9,-302.7,0,0,4392,0,200,0,
2.4433,243.0,-50.4,237.6,346.5,92.1,45.9,-300.9,0,0,4398,0,201,0,
2.4467,243.3,-43.8,244.2,346.8,86.7,42.0,-310.2,0,0,4404,0,202,0,
2.4500,241.8,-49.2,234.0,343.2,88.8,45.3,-303.9,0,0,4410,0,203,0,
2.4533,246.0,-44.1,236.4,342.3,90.3,46.2,-304.5,0,0,4416,0,204,0,
2.4567,242.7,-49.2,238.5,341.4,92.1,48.3,-297.3,0,0,4422,0,205,0,
2.4600,240.0,-47.4,231.3,338.7,95.1,33.0,-304.5,0,0,4428,0,206,0,
2.4633,228.0,-48.6,233.4,338.1,99.6,35.1,-312.0,0,0,4434,0,207,0,
2.4667,244.8,-39.9,245.1,344.1,73.2,60.0,-292.8,0,0,4440,0,208,0,
2.4700,240.6,-46.2,228.3,337.2,84.6,47.1,-297.3,0,0,4446,0,209,0,
2.4733,236.7,-45.0,235.5,342.0,85.2,50.4,-298.8,0,0,4452,0,210,0,
2.4767,237.6,-41.4,231.0,339.3,85.2,46.2,-305.4,0,0,4458,0,211,0,
2.4800,232.2,-38.1,227.4,336.0,86.1,44.4,-303.3,0,0,4464,0,212,0,
2.4833,231.0,-51.6,232.8,339.3,86.7,41.1,-306.9,0,0,4470,0,213,0,
2.4867,231.6,-54.0,230.1,342.0,87.6,42.9,-304.5,0,0,4476,0,214,0,
2.4900,239.1,-51.6,234.0,345.3,90.6,48.6,-297.6,0,0,4482,0,215,0,
2.4933,230.4,-54.3,234.3,341.7,86.1,47.1,-303.9,0,0,4488,0,216,0,
2.4967,226.5,-58.8,235.2,343.8,80.1,40.5,-310.8,0,0,4494,0,217,0,
2.5000,234.6,-54.0,234.6,344.1,81.6,48.3,-305.7,0,0,4500,0,218,0,
2.5033,236.4,-50.4,231.6,344.4,82.8,44.7,-310.2,0,0,4506,0,219,0,
2.5067,230.1,-49.2,230.7,343.2,80.4,37.2,-323.4,0,0,4512,0,220,0,
2.5100,225.3,-55.5,231.0,341.4,82.8,40.2,-334.2,0,0,4518,0,221,0,
2.5133,229.8,-50.1,230.7,342.6,87.6,44.1,-329.7,0,0,4524,0,222,0,
2.5167,228.3,-48.3,239.4,345.6,91.2,53.1,-309.3,0,0,4530,0,223,0,
2.5200,222.6,-54.6,228.3,340.2,96.0,26.1,-322.5,0,0,4536,0,224,0,
2.5233,236.7,-42.0,223.8,342.6,96.6,43.5,-313.2,0,0,4542,0,225,0,
2.5267,247.8,-39.6,244.8,352.8,74.4,63.6,-298.2,0,0,4548,0,226,0,
2.5300,243.9,-39.3,244.2,346.5,86.4,53.4,-308.1,0,0,4554,0,227,0,
2.5333,240.3,-42.0,236.1,346.8,84.3,53.7,-311.7,0,0,4560,0,228,0,
2.5367,237.3,-42.6,236.1,342.9,83.4,45.6,-315.3,0,0,4566,0,229,0,
2.5400,240.3,-46.2,237.9,347.1,81.0,44.1,-313.5,0,0,4572,0,230,0,
2.5433,241.8,-40.8,241.5,347.7,88.2,46.5,-314.7,0,0,4578,0,231,0,
2.5467,242.7,-39.9,243.9,347.7,88.2,45.6,-313.5,0,0,4584,0,232,0,
2.5500,239.1,-35.4,243.9,346.5,84.0,48.9,-315.3,0,0,4590,0,233,0,
2.5533,239.4,-38.7,240.9,346.2,81.9,48.6,-311.7,0,0,4596,0,234,0,
2.5567,243.3,-42.9,241.2,345.0,82.5,47.1,-311.4,0,0,4602,0,235,0,
2.5600,238.5,-42.6,232.5,346.8,78.9,40.8,-316.5,0,0,4608,0,236,0,
2.5633,234.9,-40.2,234.3,348.0,82.2,42.0,-315.0,0,0,4614,0,237,0,
2.5667,245.4,-36.3,232.8,345.0,79.8,42.3,-311.1,0,0,4620,0,238,0,
2.5700,240.3,-43.5,233.1,343.8,80.7,48.3,-316.5,0,0,4626,0,239,0,
2.5733,239.1,-41.1,234.3,342.0,80.4,28.5,-316.8,0,0,4632,0,240,0,
2.5767,221.1,-48.9,233.7,336.3,90.3,21.0,-330.9,0,0,4638,0,241,0,
2.5800,247.2,-30.0,241.8,351.3,64.5,57.0,-308.7,0,0,4644,0,242,0,
2.5833,243.6,-34.2,228.9,339.3,76.2,47.7,-314.7,0,0,4650,0,243,0,
2.5867,237.3,-41.4,226.5,340.8,72.9,46.2,-312.6,0,0,4656,0,244,0,
2.5900,230.4,-44.7,222.9,338.1,75.3,39.9,-321.0,0,0,4662,0,245,0,
2.5933,243.6,-36.3,231.0,345.9,78.6,46.8,-317.1,0,0,4668,0,246,0,
2.5967,241.5,-40.8,234.9,345.9,77.4,39.3,-322.5,0,0,4674,0,247,0,
2.6000,233.7,-48.6,225.9,343.8,74.1,36.6,-325.8,0,0,4680,0,248,0,
2.6033,233.4,-49.8,225.9,342.3,77.1,38.1,-327.0,0,0,4686,0,249,0,
2.6067,239.4,-41.1,230.4,342.9,75.3,43.2,-323.4,0,0,4692,0,250,0,
2.6100,233.4,-39.9,230.4,340.5,78.6,41.7,-322.8,0,0,4698,0,251,0,
2.6133,231.9,-48.3,230.1,337.8,78.6,39.0,-329.1,0,0,4704,0,252,0,
2.6167,229.8,-51.6,233.4,338.1,77.7,36.3,-331.8,0,0,4710,0,253,0,
2.6200,233.7,-49.2,229.2,335.7,76.5,36.3,-331.5,0,0,4716,0,254,0,
2.6233,237.0,-38.1,233.7,341.7,80.7,40.5,-333.0,0,0,4722,0,255,0,
2.6267,225.6,-50.4,226.8,339.6,80.1,39.9,-337.8,0,0,4728,0,0,0,
2.6300,235.5,-45.3,224.4,339.9,75.9,35.7,-327.9,0,0,4734,0,1,0,
2.6333,219.0,-57.0,219.0,333.0,93.3,20.4,-332.7,0,0,4740,0,2,0,
2.6367,235.5,-48.3,228.9,334.8,75.6,48.0,-324.6,0,0,4746,0,3,0,
2.6400,233.4,-45.6,227.4,338.7,66.9,48.3,-327.9,0,0,4752,0,4,0,
2.6433,228.6,-50.1,221.4,331.8,77.4,44.4,-328.2,0,0,4758,0,5,0,
2.6467,227.1,-50.4,225.0,331.8,76.2,48.3,-322.8,0,0,4764,0,6,0,
2.6500,232.8,-41.7,225.9,332.7,81.3,61.8,-311.4,0,0,4770,0,7,0,
2.6533,234.3,-51.3,222.3,328.2,76.8,47.7,-327.3,0,0,4776,0,8,0,
2.6567,241.8,-47.7,229.5,332.7,75.9,41.4,-314.7,0,0,4782,0,9,0,
2.6600,235.5,-42.6,231.0,330.6,75.6,33.0,-319.5,0,0,4788,0,10,0,
2.6633,239.4,-46.2,239.7,337.5,78.0,41.4,-316.5,0,0,4794,0,11,0,
2.6667,243.0,-37.8,240.6,339.6,77.4,40.8,-313.8,0,0,4800,0,12,0,
2.6700,240.3,-48.3,231.3,335.7,80.7,44.7,-307.5,0,0,4806,0,13,0,
2.6733,244.5,-45.6,233.1,335.1,80.1,44.4,-309.9,0,0,4812,0,14,0,
2.6767,243.3,-45.0,233.7,334.2,80.7,45.3,-305.1,0,0,4818,0,15,0,
2.6800,237.3,-45.3,228.6,333.0,77.7,39.6,-313.5,0,0,4824,0,16,0,
2.6833,239.4,-49.2,229.2,331.2,80.7,42.9,-310.2,0,0,4830,0,17,0,
2.6867,247.2,-45.0,236.1,333.0,77.7,40.2,-307.5,0,0,4836,0,18,0,
2.6900,249.3,-49.5,236.1,334.2,78.0,39.0,-305.7,0,0,4842,0,19,0,
2.6933,245.7,-46.8,229.2,334.2,78.3,41.1,-303.0,0,0,4848,0,20,0,
2.6967,240.6,-45.3,228.9,330.6,76.5,37.5,-303.6,0,0,4854,0,21,0,
2.7000,244.8,-42.6,226.2,333.9,78.3,41.7,-304.8,0,0,4860,0,22,0,
2.7033,240.3,-49.2,228.0,331.8,80.1,40.8,-303.6,0,0,4866,0,23,0,
2.7067,236.7,-47.4,231.6,331.2,77.4,40.8,-309.9,0,0,4872,0,24,0,
2.7100,246.0,-51.9,231.6,332.4,82.5,43.8,-302.4,0,0,4878,0,25,0,
2.7133,243.0,-52.5,225.6,330.6,84.6,42.9,-305.1,0,0,4884,0,26,0,
2.7167,234.9,-51.9,229.2,333.6,83.7,44.1,-297.6,0,0,4890,0,27,0,
2.7200,233.7,-44.7,226.8,330.6,82.8,40.5,-303.9,0,0,4896,0,28,0,
2.7233,231.6,-54.6,227.4,328.2,81.0,40.5,-307.5,0,0,4902,0,29,0,
2.7267,233.4,-57.6,227.1,328.8,76.2,40.2,-306.9,0,0,4908,0,30,0,
2.7300,224.4,-54.9,223.2,331.8,79.8,40.5,-307.2,0,0,4914,0,31,0,
2.7333,222.9,-54.6,220.5,332.1,77.4,40.5,-310.2,0,0,4920,0,32,0,
2.7367,209.4,-62.4,215.4,326.1,97.2,17.4,-311.1,0,0,4926,0,33,0,
2.7400,219.9,-59.7,218.4,328.8,86.4,32.7,-315.0,0,0,4932,0,34,0,
2.7433,225.3,-55.2,225.6,337.2,72.3,42.6,-302.7,0,0,4938,0,35,0,
2.7467,224.7,-58.8,222.6,335.1,83.1,33.9,-312.0,0,0,4944,0,36,0,
2.7500,234.0,-44.7,231.3,336.9,84.6,41.7,-295.2,0,0,4950,0,37,0,
2.7533,231.0,-44.1,230.1,337.5,79.5,36.9,-292.5,0,0,4956,0,38,0,
2.7567,221.4,-54.0,228.6,337.8,78.6,31.2,-305.1,0,0,4962,0,39,0,
2.7600,222.9,-50.7,224.7,335.7,78.3,32.7,-303.6,0,0,4968,0,40,0,
2.7633,228.9,-41.1,220.2,338.7,84.6,42.9,-293.1,0,0,4974,0,41,0,
2.7667,232.8,-39.6,234.9,338.7,83.7,38.4,-294.9,0,0,4980,0,42,0,
2.7700,227.4,-33.3,236.1,340.2,89.7,44.1,-292.8,0,0,4986,0,43,0,
2.7733,231.9,-36.9,231.3,336.6,88.2,37.2,-290.1,0,0,4992,0,44,0,
2.7767,233.7,-32.4,237.9,342.6,89.4,40.2,-291.6,0,0,4998,0,45,0,
2.7800,230.4,-36.0,232.5,337.2,86.7,38.1,-290.1,0,0,5004,0,46,0,
2.7833,222.3,-42.0,230.4,334.8,82.5,33.3,-299.1,0,0,5010,0,47,0,
2.7867,230.1,-39.0,231.3,339.0,84.0,38.1,-294.0,0,0,5016,0,48,0,
2.7900,232.5,-37.2,235.5,344.1,86.7,42.0,-298.2,0,0,5022,0,49,0,
2.7933,236.4,-32.7,233.4,342.3,88.8,40.5,-291.3,0,0,5028,0,50,0,
2.7967,239.1,-36.3,238.8,343.2,87.6,39.3,-292.5,0,0,5034,0,51,0,
2.8000,230.4,-39.6,237.0,342.0,87.9,39.3,-299.7,0,0,5040,0,52,0,
2.8033,233.7,-40.5,239.7,342.6,86.7,44.7,-298.5,0,0,5046,0,53,0,
2.8067,235.8,-33.3,244.2,343.2,87.3,41.1,-294.0,0,0,5052,0,54,0,
2.8100,232.5,-36.6,243.9,343.5,85.8,36.9,-297.6,0,0,5058,0,55,0,
2.8133,221.4,-40.5,240.0,336.9,103.5,22.8,-302.7,0,0,5064,0,56,0,
2.8167,241.5,-27.3,237.0,345.0,85.8,48.0,-296.1,0,0,5070,0,57,0,
2.8200,244.2,-23.7,244.2,348.9,76.5,52.5,-292.2,0,0,5076,0,58,0,
2.8233,242.1,-34.2,244.8,346.5,84.3,37.2,-297.6,0,0,5082,0,59,0,
2.8267,234.3,-34.2,246.0,345.9,82.5,37.8,-298.5,0,0,5088,0,60,0,
2.8300,240.6,-31.5,241.2,342.0,84.3,39.0,-289.8,0,0,5094,0,61,0,
2.8333,236.7,-28.2,243.9,345.3,88.5,47.4,-295.5,0,0,5100,0,62,0,
2.8367,246.0,-23.7,246.3,343.2,82.2,43.2,-292.2,0,0,5106,0,63,0,
2.8400,233.1,-31.8,240.3,341.1,83.1,37.8,-304.2,0,0,5112,0,64,0,
2.8433,242.7,-23.4,250.5,345.0,87.6,44.1,-294.6,0,0,5118,0,65,0,
2.8467,234.6,-28.5,244.2,344.7,85.2,43.8,-298.5,0,0,5124,0,66,0,
2.8500,242.4,-32.7,253.8,345.6,87.3,44.4,-294.9,0,0,5130,0,67,0,
2.8533,251.1,-38.1,249.9,345.9,88.5,49.2,-289.5,0,0,5136,0,68,0,
2.8567,243.0,-41.7,247.2,346.5,87.0,44.4,-288.0,0,0,5142,0,69,0,
2.8600,244.5,-29.1,247.5,348.3,85.5,49.2,-288.0,0,0,5148,0,70,0,
2.8633,244.2,-24.0,249.0,346.8,91.8,48.0,-286.8,0,0,5154,0,71,0,
2.8667,239.4,-17.4,247.8,349.8,91.5,50.4,-291.3,0,0,5160,0,72,0,
2.8700,246.9,-15.6,254.4,345.6,90.3,50.4,-285.6,0,0,5166,0,73,0,
2.8733,244.8,-16.8,254.7,349.8,89.4,51.9,-279.6,0,0,5172,0,74,0,
2.8767,239.4,-18.3,262.5,353.4,86.4,51.9,-276.9,0,0,5178,0,75,0,
2.8800,246.6,-12.9,255.9,352.8,92.1,57.3,-273.0,0,0,5184,0,76,0,
2.8833,251.7,-6.3,256.5,355.5,93.6,55.5,-272.7,0,0,5190,0,77,0,
2.8867,238.2,-18.6,249.6,340.5,111.0,36.6,-289.8,0,0,5196,0,78,0,
2.8900,253.8,0.6,260.4,351.9,81.9,63.9,-269.4,0,0,5202,0,79,0,
2.8933,242.4,-6.6,257.1,349.2,87.9,69.0,-272.1,0,0,5208,0,80,0,
2.8967,255.9,-1.2,258.6,345.6,91.2,62.1,-276.0,0,0,5214,0,81,0,
2.9000,261.6,0.9,260.7,345.9,97.5,75.0,-272.4,0,0,5220,0,82,0,
2.9033,254.4,-3.9,258.3,344.7,92.1,62.7,-273.0,0,0,5226,0,83,0,
2.9067,254.7,-6.9,253.5,343.2,93.0,64.8,-278.4,0,0,5232,0,84,0,
2.9100,252.9,-9.0,251.4,342.9,88.2,59.4,-280.8,0,0,5238,0,85,0,
2.9133,249.0,-17.4,245.7,342.6,89.7,56.1,-283.2,0,0,5244,0,86,0,
2.9167,258.3,-16.8,250.5,341.4,90.3,59.1,-277.5,0,0,5250,0,87,0,
2.9200,257.1,-15.6,253.2,349.2,92.1,59.7,-276.6,0,0,5256,0,88,0,
2.9233,256.2,-10.2,256.2,347.4,92.4,56.4,-280.2,0,0,5262,0,89,0,
2.9267,253.2,-11.7,256.2,347.4,92.1,54.3,-282.3,0,0,5268,0,90,0,
2.9300,244.5,-27.9,251.4,345.0,85.2,47.7,-297.3,0,0,5274,0,91,0,
2.9333,246.9,-18.6,253.8,347.4,88.8,53.4,-287.1,0,0,5280,0,92,0,
2.9367,253.2,-7.2,246.0,343.5,90.6,59.7,-270.6,0,0,5286,0,93,0,
2.9400,246.3,-15.3,246.6,345.3,95.1,50.4,-274.2,0,0,5292,0,94,0,
2.9433,225.6,-35.4,239.1,340.5,102.9,39.6,-295.5,0,0,5298,0,95,0,
2.9467,253.5,-18.0,255.0,344.4,75.0,70.2,-270.0,0,0,5304,0,96,0,
2.9500,243.9,-22.8,246.3,337.2,86.1,51.6,-279.3,0,0,5310,0,97,0,
2.9533,245.1,-22.5,246.0,340.2,84.0,50.4,-282.0,0,0,5316,0,98,0,
2.9567,245.4,-16.8,244.8,339.9,88.2,55.5,-277.8,0,0,5322,0,99,0,
2.9600,243.6,-23.7,243.6,339.3,87.9,54.3,-276.6,0,0,5328,0,100,0,
2.9633,238.5,-25.2,244.2,339.6,87.0,55.5,-280.8,0,0,5334,0,101,0,
2.9667,249.9,-11.7,250.8,342.0,88.2,54.0,-282.0,0,0,5340,0,102,0,
2.9700,253.2,-5.7,254.4,345.6,90.9,62.4,-272.1,0,0,5346,0,103,0,
2.9733,250.5,-12.3,252.6,343.8,89.4,59.4,-279.3,0,0,5352,0,104,0,
2.9767,237.6,-19.5,249.6,342.9,92.1,62.4,-293.4,0,0,5358,0,105,0,
2.9800,245.1,-18.3,250.2,341.1,86.4,47.1,-291.6,0,0,5364,0,106,0,
2.9833,243.6,-23.1,246.9,339.9,85.8,47.4,-284.1,0,0,5370,0,107,0,
2.9867,246.0,-18.6,250.8,343.8,87.0,48.6,-285.3,0,0,5376,0,108,0,
2.9900,241.5,-18.0,244.8,338.4,87.9,48.0,-287.1,0,0,5382,0,109,0,
2.9933,242.7,-20.7,249.6,338.7,86.4,45.9,-288.0,0,0,5388,0,110,0,
2.9967,241.5,-17.7,253.2,341.1,87.9,50.7,-287.7,0,0,5394,0,111,0,
3.0000,245.1,-17.1,240.9,339.6,89.1,52.5,-289.2,0,0,5400,0,112,0,
3.0033,237.3,-21.6,235.8,336.9,85.8,54.0,-284.7,0,0,5406,0,113,0,
3.0067,226.8,-31.8,231.9,330.6,98.4,30.9,-300.0,0,0,5412,0,114,0,
3.0100,240.9,-24.0,241.8,335.7,93.9,51.0,-289.5,0,0,5418,0,115,0,
3.0133,244.5,-14.4,243.6,340.5,81.9,66.0,-281.1,0,0,5424,0,116,0,
3.0167,238.2,-10.2,243.9,336.3,92.1,66.0,-282.0,0,0,5430,0,117,0,
3.0200,239.7,-7.2,243.0,338.4,86.4,60.9,-290.1,0,0,5436,0,118,0,
3.0233,237.0,-21.9,246.3,339.0,89.7,53.7,-283.2,0,0,5442,0,119,0,
3.0267,238.8,-14.7,244.5,337.8,89.4,51.9,-283.8,0,0,5448,0,120,0,
3.0300,237.3,-19.2,239.4,337.5,89.4,55.2,-287.1,0,0,5454,0,121,0,
3.0333,241.8,-18.9,239.1,338.1,91.2,51.3,-285.0,0,0,5460,0,122,0,
3.0367,243.3,-18.9,246.0,341.4,92.7,56.1,-286.8,0,0,5466,0,123,0,
3.0400,231.6,-23.7,236.1,334.5,88.5,50.7,-283.5,0,0,5472,0,124,0,
3.0433,234.3,-20.1,239.1,337.5,87.0,48.0,-289.2,0,0,5478,0,125,0,
3.0467,238.2,-15.6,248.1,338.4,87.6,49.2,-292.5,0,0,5484,0,126,0,
3.0500,237.9,-12.9,238.5,337.8,86.4,47.1,-295.5,0,0,5490,0,127,0,
3.0533,243.9,-7.8,243.0,334.5,86.7,52.8,-289.8,0,0,5496,0,128,0,
3.0567,245.1,-9.3,247.2,339.0,90.6,53.7,-293.1,0,0,5502,0,129,0,
3.0600,250.2,1.5,252.3,341.7,92.4,61.8,-278.4,0,0,5508,0,130,0,
3.0633,236.1,-19.5,241.5,332.1,102.0,39.9,-294.9,0,0,5514,0,131,0,
3.0667,240.0,-9.9,249.9,335.7,94.8,59.7,-287.4,0,0,5520,0,132,0,
3.0700,252.3,-3.3,257.1,343.2,75.9,72.9,-288.6,0,0,5526,0,133,0,
3.0733,254.4,-6.0,253.8,337.2,89.1,63.9,-287.4,0,0,5532,0,134,0,
3.0767,250.2,-11.1,249.9,336.3,91.2,66.3,-291.3,0,0,5538,0,135,0,
3.0800,243.0,-11.1,246.0,334.5,87.3,58.8,-292.8,0,0,5544,0,136,0,
3.0833,249.9,-6.9,251.1,340.8,91.5,64.8,-289.8,0,0,5550,0,137,0,
3.0867,255.3,-9.9,249.0,341.4,92.4,66.9,-284.1,0,0,5556,0,138,0,
3.0900,250.8,-13.8,247.2,341.7,92.1,63.6,-291.0,0,0,5562,0,139,0,
3.0933,246.0,-7.5,250.2,342.6,92.7,68.7,-287.4,0,0,5568,0,140,0,
3.0967,249.0,-4.8,249.0,339.0,92.4,68.4,-287.7,0,0,5574,0,141,0,
3.1000,250.2,-6.0,250.8,342.9,90.3,66.3,-284.7,0,0,5580,0,142,0,
3.1033,255.0,-8.1,256.5,345.0,93.6,64.5,-276.9,0,0,5586,0,143,0,
3.1067,244.5,-7.5,253.2,345.3,95.4,70.2,-282.0,0,0,5592,0,144,0,
3.1100,244.8,-3.9,244.5,339.0,92.1,68.4,-286.5,0,0,5598,0,145,0,
3.1133,243.9,-4.5,245.1,335.7,88.2,65.4,-289.2,0,0,5604,0,146,0,
3.1167,252.0,-10.5,246.3,337.5,90.6,59.4,-284.7,0,0,5610,0,147,0,
3.1200,237.0,-18.0,230.1,331.2,111.3,47.7,-302.1,0,0,5616,0,148,0,
3.1233,256.5,10.8,251.4,344.1,82.8,82.5,-276.6,0,0,5622,0,149,0,
3.1267,247.2,-8.4,244.5,338.7,89.1,73.5,-283.5,0,0,5628,0,150,0,
3.1300,242.4,-13.2,242.7,339.3,85.2,73.2,-287.1,0,0,5634,0,151,0,
3.1333,241.8,-14.7,241.8,338.7,86.1,62.1,-292.8,0,0,5640,0,152,0,
3.1367,242.7,-18.9,245.7,340.8,84.9,59.1,-296.4,0,0,5646,0,153,0,
3.1400,240.6,-12.3,243.9,340.8,89.4,61.8,-290.7,0,0,5652,0,154,0,
3.1433,242.1,-11.4,240.0,338.7,87.3,62.4,-283.8,0,0,5658,0,155,0,
3.1467,244.8,-8.7,243.0,335.4,88.2,56.1,-285.6,0,0,5664,0,156,0,
3.1500,235.8,-12.9,242.7,339.0,93.0,61.5,-293.1,0,0,5670,0,157,0,
3.1533,234.0,-20.7,239.4,335.7,88.2,53.7,-296.7,0,0,5676,0,158,0,
3.1567,236.4,-14.7,238.2,334.8,84.0,62.7,-297.3,0,0,5682,0,159,0,
3.1600,238.8,-14.4,241.2,337.2,86.4,64.2,-296.1,0,0,5688,0,160,0,
3.1633,234.9,-20.4,236.4,334.2,87.9,62.7,-291.0,0,0,5694,0,161,0,
3.1667,243.3,-13.5,240.3,340.2,93.0,66.9,-287.1,0,0,5700,0,162,0,
3.1700,240.9,-11.1,238.2,338.1,92.1,67.2,-301.2,0,0,5706,0,163,0,
3.1733,245.7,-14.7,236.7,337.2,93.6,64.8,-291.6,0,0,5712,0,164,0,
3.1767,246.9,-11.1,240.3,336.0,92.7,65.1,-289.2,0,0,5718,0,165,0,
3.1800,246.9,-5.4,247.5,342.6,94.5,67.8,-283.2,0,0,5724,0,166,0,
3.1833,244.2,-8.1,239.1,339.9,90.3,65.7,-289.8,0,0,5730,0,167,0,
3.1867,241.5,-7.5,230.7,336.6,89.4,62.4,-298.5,0,0,5736,0,168,0,
3.1900,234.3,-6.6,232.8,336.0,85.5,56.7,-297.3,0,0,5742,0,169,0,
3.1933,237.6,-12.3,231.0,336.3,88.2,63.6,-294.3,0,0,5748,0,170,0,
3.1967,230.7,-18.9,226.8,330.9,95.4,41.7,-310.2,0,0,5754,0,171,0,
3.2000,237.3,-12.0,235.2,336.6,96.6,63.0,-297.9,0,0,5760,0,172,0,
3.2033,254.7,4.5,243.6,343.5,75.0,72.6,-281.4,0,0,5766,0,173,0,
3.2067,241.8,-6.9,241.2,340.2,89.7,66.6,-289.5,0,0,5772,0,174,0,
3.2100,250.8,1.2,247.2,344.1,88.8,73.5,-280.5,0,0,5778,0,175,0,
3.2133,243.9,-5.4,243.6,341.4,87.3,66.6,-291.6,0,0,5784,0,176,0,
3.2167,238.8,-5.7,239.7,339.0,84.0,57.0,-292.8,0,0,5790,0,177,0,
3.2200,241.2,-6.0,240.0,336.3,84.9,59.7,-297.3,0,0,5796,0,178,0,
3.2233,243.6,-5.7,241.8,340.8,87.0,64.2,-290.1,0,0,5802,0,179,0,
3.2267,248.7,-9.0,243.0,341.7,87.3,61.8,-300.6,0,0,5808,0,180,0,
3.2300,243.6,-3.6,239.4,342.0,91.8,65.1,-299.1,0,0,5814,0,181,0,
3.2333,233.7,-13.5,232.5,335.4,89.7,62.7,-303.9,0,0,5820,0,182,0,
3.2367,238.5,-9.0,238.8,338.1,87.3,58.8,-297.9,0,0,5826,0,183,0,
3.2400,246.9,-8.4,237.3,341.1,85.2,52.5,-307.5,0,0,5832,0,184,0,
3.2433,233.7,-12.9,233.1,342.0,85.2,48.6,-316.5,0,0,5838,0,185,0,
3.2467,235.8,-6.9,234.3,339.3,81.3,51.0,-312.9,0,0,5844,0,186,0,
3.2500,243.0,-12.3,237.0,336.6,84.6,54.3,-311.4,0,0,5850,0,187,0,
3.2533,248.1,-5.7,240.3,342.0,84.6,55.2,-310.2,0,0,5856,0,188,0,
3.2567,240.6,-5.7,238.2,338.7,84.3,59.7,-316.8,0,0,5862,0,189,0,
3.2600,243.9,-6.0,242.4,342.6,82.2,52.5,-317.1,0,0,5868,0,190,0,
3.2633,242.1,-7.5,241.5,341.1,79.2,51.0,-313.5,0,0,5874,0,191,0,
3.2667,239.1,-9.9,242.7,340.8,80.4,52.5,-313.8,0,0,5880,0,192,0,
3.2700,240.0,-3.3,240.9,343.5,82.2,53.1,-310.8,0,0,5886,0,193,0,
3.2733,241.5,-15.9,246.6,344.7,83.4,51.9,-314.7,0,0,5892,0,194,0,
3.2767,237.3,-14.1,245.4,342.6,83.4,55.8,-311.7,0,0,5898,0,195,0,
3.2800,238.5,-20.1,237.9,342.6,83.4,53.1,-318.6,0,0,5904,0,196,0,
3.2833,241.2,-16.8,241.2,342.0,83.4,52.5,-316.8,0,0,5910,0,197,0,
3.2867,236.4,-18.9,236.1,343.8,85.8,54.3,-315.9,0,0,5916,0,198,0,
3.2900,230.1,-15.9,236.7,342.3,87.6,53.7,-317.1,0,0,5922,0,199,0,
3.2933,228.6,-22.2,230.7,339.0,102.6,39.9,-322.2,0,0,5928,0,200,0,
3.2967,245.4,-9.9,243.3,346.2,73.5,64.8,-300.0,0,0,5934,0,201,0,
3.3000,240.0,-14.4,238.2,343.2,82.5,60.6,-305.7,0,0,5940,0,202,0,
3.3033,236.7,-9.6,238.5,343.2,86.4,60.9,-306.3,0,0,5946,0,203,0,
3.3067,244.8,-4.2,240.9,345.6,92.7,62.1,-307.8,0,0,5952,0,204,0,
3.3100,245.4,13.2,251.1,345.0,90.0,67.5,-297.6,0,0,5958,0,205,0,
3.3133,243.3,11.1,246.9,343.2,91.8,66.6,-305.1,0,0,5964,0,206,0,
3.3167,238.2,-5.1,236.1,336.9,91.5,71.7,-310.2,0,0,5970,0,207,0,
3.3200,245.7,-3.6,241.8,336.0,89.1,65.7,-312.3,0,0,5976,0,208,0,
3.3233,247.2,-0.3,243.0,339.6,87.9,68.1,-308.7,0,0,5982,0,209,0,
3.3267,240.6,-6.0,238.8,339.6,90.6,69.9,-313.5,0,0,5988,0,210,0,
3.3300,249.0,-1.8,246.6,341.7,96.6,72.3,-308.1,0,0,5994,0,211,0,
3.3333,246.6,-1.2,245.4,344.1,93.0,69.3,-306.6,0,0,6000,0,212,0,
3.3367,246.9,-1.8,246.0,338.7,90.9,67.2,-303.9,0,0,6006,0,213,0,
3.3400,242.4,-4.8,246.9,336.9,88.2,68.4,-309.6,0,0,6012,0,214,0,
3.3433,247.8,-11.1,236.7,342.3,91.8,67.5,-309.9,0,0,6018,0,215,0,
3.3467,246.0,1.5,241.5,339.6,90.0,68.4,-306.9,0,0,6024,0,216,0,
3.3500,250.2,9.9,248.7,345.3,98.4,75.9,-301.5,0,0,6030,0,217,0,
3.3533,245.4,4.8,245.7,346.2,94.8,71.7,-306.9,0,0,6036,0,218,0,
3.3567,249.6,6.6,247.8,348.3,92.1,72.9,-306.9,0,0,6042,0,219,0,
3.3600,250.2,0.6,247.5,350.4,93.6,71.1,-303.0,0,0,6048,0,220,0,
3.3633,250.8,1.2,249.0,349.5,95.7,71.4,-304.2,0,0,6054,0,221,0,
3.3667,242.7,-5.7,246.3,344.1,94.8,66.3,-313.5,0,0,6060,0,222,0,
3.3700,253.2,-0.6,254.1,344.4,90.6,69.6,-314.1,0,0,6066,0,223,0,
3.3733,253.5,-3.6,249.6,338.7,89.4,68.4,-315.9,0,0,6072,0,224,0,
3.3767,249.0,-2.4,245.4,341.7,90.0,63.6,-318.3,0,0,6078,0,225,0,
3.3800,257.4,2.1,250.5,342.9,93.3,69.6,-306.6,0,0,6084,0,226,0,
3.3833,254.7,-5.4,243.6,341.4,89.4,69.0,-309.3,0,0,6090,0,227,0,
3.3867,251.1,-11.1,244.5,340.2,87.9,63.3,-316.8,0,0,6096,0,228,0,
3.3900,251.4,-6.3,239.7,342.3,90.9,70.5,-313.2,0,0,6102,0,229,0,
3.3933,251.4,-0.3,246.6,341.4,87.9,63.6,-314.4,0,0,6108,0,230,0,
3.3967,247.8,-6.9,241.5,338.1,88.2,72.6,-317.1,0,0,6114,0,231,0,
3.4000,237.6,-21.0,233.4,337.2,85.8,64.2,-321.0,0,0,6120,0,232,0,
3.4033,253.8,-7.8,232.5,340.2,87.3,67.2,-320.1,0,0,6126,0,233,0,
3.4067,251.1,-9.9,233.1,336.0,102.9,53.1,-317.1,0,0,6132,0,234,0,
3.4100,246.6,-16.8,233.1,336.9,102.3,54.6,-324.3,0,0,6138,0,235,0,
3.4133,257.4,2.1,244.5,344.7,79.8,78.0,-308.7,0,0,6144,0,236,0,
3.4167,246.6,-11.4,231.0,337.8,89.1,61.5,-321.0,0,0,6150,0,237,0,
3.4200,255.0,6.3,239.7,346.2,90.0,71.4,-315.3,0,0,6156,0,238,0,
3.4233,256.2,-6.6,237.3,344.7,91.8,67.2,-329.7,0,0,6162,0,239,0,
3.4267,248.7,-9.9,237.3,338.1,89.1,66.3,-332.7,0,0,6168,0,240,0,
3.4300,248.4,-18.3,231.9,335.7,89.7,71.7,-329.4,0,0,6174,0,241,0,
3.4333,250.5,-13.2,236.7,335.4,88.2,73.8,-327.0,0,0,6180,0,242,0,
3.4367,251.4,-8.7,234.9,336.3,90.6,67.2,-330.0,0,0,6186,0,243,0,
3.4400,250.2,-7.2,238.5,337.5,86.4,66.9,-325.5,0,0,6192,0,244,0,
3.4433,250.8,-6.9,240.9,336.9,84.0,66.6,-323.7,0,0,6198,0,245,0,
3.4467,248.7,-11.7,238.5,338.1,86.7,68.4,-327.3,0,0,6204,0,246,0,
3.4500,262.2,2.4,238.5,343.2,93.0,75.6,-320.1,0,0,6210,0,247,0,
3.4533,255.9,4.5,240.6,341.1,93.6,82.8,-317.4,0,0,6216,0,248,0,
3.4567,252.9,2.1,240.9,342.0,91.5,72.9,-318.0,0,0,6222,0,249,0,
3.4600,267.3,3.3,249.3,347.1,94.5,74.4,-315.0,0,0,6228,0,250,0,
3.4633,257.4,-0.6,243.3,340.5,89.7,73.2,-313.2,0,0,6234,0,251,0,
3.4667,264.9,6.3,244.2,340.8,92.7,72.9,-321.9,0,0,6240,0,252,0,
3.4700,252.0,3.3,243.3,341.7,90.6,72.6,-322.5,0,0,6246,0,253,0,
3.4733,255.0,-1.8,243.0,342.9,95.1,75.9,-321.3,0,0,6252,0,254,0,
3.4767,252.3,-12.0,234.0,339.6,91.5,67.5,-325.5,0,0,6258,0,255,0,
3.4800,257.7,-1.5,242.7,343.5,93.9,68.7,-324.3,0,0,6264,0,0,0,
3.4833,259.5,2.1,243.0,342.6,93.9,68.1,-326.4,0,0,6270,0,1,0,
3.4867,255.6,0.9,246.9,343.2,88.2,69.6,-321.6,0,0,6276,0,2,0,
3.4900,240.9,-15.3,234.0,339.3,100.5,43.8,-338.7,0,0,6282,0,3,0,
3.4933,253.2,8.4,250.2,347.7,86.1,67.5,-323.4,0,0,6288,0,4,0,
3.4967,264.3,14.4,252.9,350.4,75.6,76.2,-315.6,0,0,6294,0,5,0,
3.5000,256.5,5.1,249.9,347.1,85.5,64.8,-323.4,0,0,6300,0,6,0,
3.5033,254.7,12.3,248.1,342.3,87.0,64.8,-321.0,0,0,6306,0,7,0,
3.5067,263.7,12.0,254.7,345.9,89.7,67.5,-312.0,0,0,6312,0,8,0,
3.5100,259.8,4.8,249.6,347.1,89.1,69.9,-312.6,0,0,6318,0,9,0,
3.5133,255.9,3.3,249.6,343.2,87.3,62.4,-325.5,0,0,6324,0,10,0,
3.5167,254.1,2.7,253.2,343.8,84.6,60.0,-329.7,0,0,6330,0,11,0,
3.5200,263.4,10.5,252.9,346.2,87.0,64.8,-319.2,0,0,6336,0,12,0,
3.5233,257.1,6.0,255.0,342.9,88.5,62.1,-318.9,0,0,6342,0,13,0,
3.5267,251.7,5.4,261.6,348.0,92.1,66.9,-310.5,0,0,6348,0,14,0,
3.5300,258.9,5.7,256.2,348.9,89.4,56.1,-305.1,0,0,6354,0,15,0,
3.5333,253.2,-3.3,250.2,342.0,89.7,57.9,-327.3,0,0,6360,0,16,0,
3.5367,250.8,-4.8,253.2,341.4,90.6,52.8,-320.7,0,0,6366,0,17,0,
3.5400,258.3,5.7,255.6,349.8,95.1,65.7,-310.5,0,0,6372,0,18,0,
3.5433,255.0,6.0,251.7,349.2,91.8,64.2,-316.8,0,0,6378,0,19,0,
3.5467,249.6,-1.2,254.4,346.5,89.4,59.7,-320.1,0,0,6384,0,20,0,
3.5500,252.6,2.1,253.8,345.3,90.3,65.7,-316.5,0,0,6390,0,21,0,
3.5533,252.3,1.2,255.0,342.3,90.6,62.1,-319.8,0,0,6396,0,22,0,
3.5567,253.5,-0.3,250.5,343.5,86.1,57.0,-317.4,0,0,6402,0,23,0,
3.5600,250.8,2.7,250.8,339.9,87.9,58.2,-313.8,0,0,6408,0,24,0,
3.5633,250.2,-1.8,243.9,339.0,87.6,61.5,-310.8,0,0,6414,0,25,0,
3.5667,245.1,-13.2,243.6,339.3,88.8,59.1,-309.3,0,0,6420,0,26,0,
3.5700,248.7,-12.3,248.4,342.0,91.8,58.5,-310.2,0,0,6426,0,27,0,
3.5733,249.3,0.9,248.4,343.2,85.2,54.0,-313.5,0,0,6432,0,28,0,
3.5767,238.8,-15.6,238.2,336.9,98.1,38.1,-323.4,0,0,6438,0,29,0,
3.5800,240.6,-12.9,249.3,346.2,85.2,50.4,-318.0,0,0,6444,0,30,0,
3.5833,256.8,-6.0,258.0,349.2,73.5,67.2,-308.1,0,0,6450,0,31,0,
3.5867,243.9,-8.4,243.9,345.3,85.8,57.9,-318.9,0,0,6456,0,32,0,
3.5900,243.0,-8.7,249.9,345.9,88.8,65.7,-313.5,0,0,6462,0,33,0,
3.5933,248.1,-8.7,253.5,346.2,86.4,53.7,-302.7,0,0,6468,0,34,0,
3.5967,250.8,-1.8,252.0,347.1,89.4,63.3,-297.6,0,0,6474,0,35,0,
3.6000,248.4,-2.1,247.2,347.1,92.7,61.8,-293.4,0,0,6480,0,36,0,
3.6033,249.3,-4.2,248.4,344.7,93.0,61.2,-298.8,0,0,6486,0,37,0,
3.6067,241.8,-13.2,247.5,343.2,91.8,63.0,-294.3,0,0,6492,0,38,0,
3.6100,251.1,0.6,246.3,340.8,95.7,60.9,-298.2,0,0,6498,0,39,0,
3.6133,246.0,-6.3,241.5,338.1,93.6,63.9,-304.2,0,0,6504,0,40,0,
3.6167,245.7,-3.3,246.6,344.1,92.1,55.8,-302.4,0,0,6510,0,41,0,
3.6200,247.5,-1.8,251.4,343.5,97.2,64.8,-301.5,0,0,6516,0,42,0,
3.6233,246.3,3.0,249.0,340.2,95.1,58.5,-301.8,0,0,6522,0,43,0,
3.6267,240.3,-7.2,243.6,342.3,87.0,60.3,-311.7,0,0,6528,0,44,0,
3.6300,239.7,4.2,254.4,347.4,90.6,60.0,-312.0,0,0,6534,0,45,0,
3.6333,246.0,-4.2,251.1,345.6,90.0,62.1,-305.7,0,0,6540,0,46,0,
3.6367,239.7,-2.1,250.8,342.6,91.5,56.4,-308.1,0,0,6546,0,47,0,
3.6400,229.2,-10.5,239.1,342.0,87.0,53.1,-318.9,0,0,6552,0,48,0,
3.6433,225.6,-12.0,243.9,342.3,85.5,55.5,-315.0,0,0,6558,0,49,0,
3.6467,234.0,-13.5,246.9,348.6,91.2,51.0,-312.6,0,0,6564,0,50,0,
3.6500,231.6,-14.4,246.9,347.4,90.6,53.4,-313.8,0,0,6570,0,51,0,
3.6533,224.1,-20.4,242.7,344.4,90.0,49.5,-321.6,0,0,6576,0,52,0,
3.6567,225.6,-21.6,239.4,339.6,86.7,50.1,-316.8,0,0,6582,0,53,0,
3.6600,231.0,-10.5,251.4,347.1,91.8,56.1,-310.2,0,0,6588,0,54,0,
3.6633,221.1,-15.3,250.8,342.6,86.1,51.0,-321.9,0,0,6594,0,55,0,
3.6667,224.4,-11.1,241.8,341.4,85.8,53.1,-322.8,0,0,6600,0,56,0,
3.6700,218.4,-13.2,240.3,339.3,93.3,35.7,-326.1,0,0,6606,0,57,0,
3.6733,213.3,-15.6,241.8,338.7,99.6,39.0,-336.0,0,0,6612,0,58,0,
3.6767,236.4,-4.8,253.5,349.5,75.9,72.3,-310.2,0,0,6618,0,59,0,
3.6800,230.4,-6.6,246.3,342.0,90.6,66.3,-304.5,0,0,6624,0,60,0,
3.6833,227.7,-1.2,245.4,341.7,87.6,62.7,-307.8,0,0,6630,0,61,0,
3.6867,223.5,-5.7,242.7,337.5,83.4,53.4,-318.3,0,0,6636,0,62,0,
3.6900,227.1,-3.3,247.2,343.2,84.0,57.9,-311.1,0,0,6642,0,63,0,
3.6933,219.6,-12.0,242.1,337.2,86.7,57.9,-322.5,0,0,6648,0,64,0,
3.6967,232.8,-6.6,244.8,340.2,90.3,60.3,-312.3,0,0,6654,0,65,0,
3.7000,235.2,5.4,246.6,338.1,87.6,56.7,-307.8,0,0,6660,0,66,0,
3.7033,235.2,-7.8,245.1,339.6,84.6,55.2,-307.2,0,0,6666,0,67,0,
3.7067,232.2,-6.0,248.1,340.2,87.9,56.1,-308.1,0,0,6672,0,68,0,
3.7100,238.5,8.4,254.4,342.6,89.4,64.5,-294.3,0,0,6678,0,69,0,
3.7133,237.6,2.1,254.7,341.1,85.2,57.3,-306.3,0,0,6684,0,70,0,
3.7167,234.0,0.9,258.6,343.5,93.9,68.1,-290.1,0,0,6690,0,71,0,
3.7200,242.7,11.4,256.5,344.1,94.2,63.9,-303.0,0,0,6696,0,72,0,
3.7233,247.8,11.7,262.8,345.9,95.7,72.9,-288.9,0,0,6702,0,73,0,
3.7267,240.9,2.7,255.9,342.3,95.7,69.6,-298.5,0,0,6708,0,74,0,
3.7300,243.0,9.6,259.8,342.6,96.0,70.5,-293.1,0,0,6714,0,75,0,
3.7333,246.6,9.6,260.1,347.7,96.3,72.3,-291.9,0,0,6720,0,76,0,
3.7367,240.3,2.4,256.2,342.3,96.3,75.9,-294.3,0,0,6726,0,77,0,
3.7400,241.2,1.5,261.9,341.4,96.9,79.8,-294.9,0,0,6732,0,78,0,
3.7433,246.6,3.0,258.9,343.8,95.1,70.8,-295.2,0,0,6738,0,79,0,
3.7467,247.2,6.0,251.4,343.8,97.8,64.8,-291.0,0,0,6744,0,80,0,
3.7500,246.0,3.9,254.1,340.2,95.7,66.9,-292.2,0,0,6750,0,81,0,
3.7533,248.7,-3.3,261.6,345.9,99.0,71.1,-285.9,0,0,6756,0,82,0,
3.7567,246.3,0.0,254.4,340.5,97.8,70.2,-290.4,0,0,6762,0,83,0,
3.7600,244.2,3.0,256.5,343.5,96.0,69.6,-293.4,0,0,6768,0,84,0,
3.7633,242.7,2.1,257.4,340.8,96.3,67.5,-289.5,0,0,6774,0,85,0,
3.7667,245.7,0.6,254.4,339.3,96.3,68.4,-284.7,0,0,6780,0,86,0,
3.7700,247.8,7.8,256.8,336.3,93.3,66.9,-288.0,0,0,6786,0,87,0,
3.7733,248.4,4.5,252.9,339.3,93.3,70.8,-285.3,0,0,6792,0,88,0,
3.7767,244.2,1.2,254.7,342.0,95.7,74.7,-285.9,0,0,6798,0,89,0,
3.7800,244.5,-1.2,253.2,341.7,97.8,74.1,-282.0,0,0,6804,0,90,0,
3.7833,244.2,-9.0,255.0,338.1,91.8,64.5,-289.2,0,0,6810,0,91,0,
3.7867,252.0,-5.4,253.8,340.2,93.6,66.6,-286.2,0,0,6816,0,92,0,
3.7900,244.8,4.8,255.6,338.7,96.3,73.8,-285.0,0,0,6822,0,93,0,
3.7933,252.9,5.7,256.5,339.0,97.2,71.7,-281.7,0,0,6828,0,94,0,
3.7967,241.5,-9.6,244.5,336.9,112.2,49.8,-297.0,0,0,6834,0,95,0,
3.8000,251.7,-3.0,254.1,337.8,102.6,69.3,-281.1,0,0,6840,0,96,0,
3.8033,258.0,4.2,261.0,343.8,84.0,82.8,-285.6,0,0,6846,0,97,0,
3.8067,257.4,3.0,249.9,339.3,99.6,81.6,-277.5,0,0,6852,0,98,0,
3.8100,268.8,12.9,259.8,340.8,99.6,83.1,-278.7,0,0,6858,0,99,0,
3.8133,259.5,10.2,257.7,341.4,100.2,72.0,-283.2,0,0,6864,0,100,0,
3.8167,256.5,10.5,255.3,338.4,100.8,79.5,-285.6,0,0,6870,0,101,0,
3.8200,256.2,20.1,257.7,340.2,98.1,71.4,-283.5,0,0,6876,0,102,0,
3.8233,261.6,26.7,262.2,344.4,97.5,79.5,-280.2,0,0,6882,0,103,0,
3.8267,264.3,25.2,266.4,346.5,102.3,84.6,-274.8,0,0,6888,0,104,0,
3.8300,261.0,11.1,263.4,345.9,104.7,83.4,-278.7,0,0,6894,0,105,0,
3.8333,260.1,7.5,266.7,351.9,101.1,81.0,-275.1,0,0,6900,0,106,0,
3.8367,262.8,4.8,264.0,351.3,103.8,76.8,-272.7,0,0,6906,0,107,0,
3.8400,257.7,6.3,264.6,353.1,107.4,78.0,-277.2,0,0,6912,0,108,0,
3.8433,261.6,8.7,265.2,355.8,105.0,80.7,-278.4,0,0,6918,0,109,0,
3.8467,258.6,12.3,264.6,349.5,101.1,77.7,-277.5,0,0,6924,0,110,0,
3.8500,258.0,10.5,267.6,354.6,101.7,80.1,-280.5,0,0,6930,0,111,0,
3.8533,247.8,3.0,256.5,343.2,97.2,69.3,-292.5,0,0,6936,0,112,0,
3.8567,251.4,9.9,262.8,348.3,98.7,70.2,-291.3,0,0,6942,0,113,0,
3.8600,253.8,6.0,262.5,350.7,101.4,76.2,-290.7,0,0,6948,0,114,0,
3.8633,255.6,17.7,261.6,352.2,100.8,77.7,-294.3,0,0,6954,0,115,0,
3.8667,260.1,18.0,261.6,351.3,104.4,79.2,-290.7,0,0,6960,0,116,0,
3.8700,259.2,15.0,259.5,347.7,104.7,83.7,-282.9,0,0,6966,0,117,0,
3.8733,252.3,8.7,261.0,351.3,99.6,77.7,-287.7,0,0,6972,0,118,0,
3.8767,252.6,2.1,261.3,350.4,101.4,72.6,-292.2,0,0,6978,0,119,0,
3.8800,256.2,6.9,262.8,348.6,105.3,77.7,-287.1,0,0,6984,0,120,0,
3.8833,258.3,11.4,267.3,354.6,107.4,80.4,-284.1,0,0,6990,0,121,0,
3.8867,253.5,5.7,260.7,351.0,101.4,74.1,-288.3,0,0,6996,0,122,0,
3.8900,260.1,12.6,264.0,355.8,107.1,77.4,-285.3,0,0,7002,0,123,0,
3.8933,249.6,11.7,258.6,348.9,117.9,65.7,-292.2,0,0,7008,0,124,0,
3.8967,253.2,9.9,258.6,344.7,113.4,78.6,-294.6,0,0,7014,0,125,0,
3.9000,261.6,18.9,266.4,354.6,92.1,94.8,-286.2,0,0,7020,0,126,0,
3.9033,253.2,4.2,260.1,349.8,102.9,72.9,-296.4,0,0,7026,0,127,0,
3.9067,246.9,-4.8,261.9,350.4,100.5,79.8,-298.8,0,0,7032,0,128,0,
3.9100,255.0,5.4,259.2,347.7,99.3,77.1,-303.3,0,0,7038,0,129,0,
3.9133,263.7,21.6,257.7,349.8,101.4,80.7,-288.3,0,0,7044,0,130,0,
3.9167,264.0,20.1,266.7,352.5,104.1,73.8,-286.2,0,0,7050,0,131,0,
3.9200,263.1,14.1,264.0,353.1,103.8,73.8,-296.1,0,0,7056,0,132,0,
3.9233,269.4,26.1,267.0,358.5,104.7,79.2,-296.7,0,0,7062,0,133,0,
3.9267,264.0,22.5,258.0,355.5,105.0,76.5,-294.9,0,0,7068,0,134,0,
3.9300,267.9,21.3,257.7,354.9,101.1,77.4,-299.4,0,0,7074,0,135,0,
3.9333,265.2,20.7,260.7,357.9,105.0,80.7,-293.4,0,0,7080,0,136,0,
3.9367,261.0,20.1,259.2,350.7,100.5,76.5,-295.8,0,0,7086,0,137,0,
3.9400,260.7,20.7,258.6,349.2,102.0,76.5,-297.0,0,0,7092,0,138,0,
3.9433,270.0,19.2,253.2,347.7,100.5,83.1,-296.7,0,0,7098,0,139,0,
3.9467,270.9,18.3,257.4,351.3,104.1,81.3,-296.4,0,0,7104,0,140,0,
3.9500,267.9,23.7,259.8,350.7,102.6,87.6,-296.7,0,0,7110,0,141,0,
3.9533,267.0,16.2,258.9,354.3,100.5,75.6,-298.8,0,0,7116,0,142,0,
3.9567,273.9,21.3,264.0,354.3,102.0,83.4,-291.0,0,0,7122,0,143,0,
3.9600,269.4,25.5,258.6,352.2,99.9,78.6,-299.7,0,0,7128,0,144,0,
3.9633,264.3,22.8,258.9,352.5,101.1,80.7,-302.7,0,0,7134,0,145,0,
3.9667,264.9,22.8,261.3,355.8,99.3,77.7,-295.8,0,0,7140,0,146,0,
3.9700,264.9,23.4,260.7,354.0,99.6,79.2,-300.3,0,0,7146,0,147,0,
3.9733,276.0,24.6,262.2,354.0,99.9,81.0,-295.2,0,0,7152,0,148,0,
3.9767,266.7,22.2,264.6,355.2,96.9,75.0,-301.2,0,0,7158,0,149,0,
3.9800,268.8,20.4,259.8,352.8,96.9,76.2,-303.0,0,0,7164,0,150,0,
3.9833,267.0,20.1,258.3,353.7,96.9,77.4,-300.6,0,0,7170,0,151,0,
3.9867,254.1,10.8,252.9,348.6,115.5,61.5,-316.2,0,0,7176,0,152,0,
3.9900,272.1,23.7,261.0,358.5,94.5,82.2,-297.0,0,0,7182,0,153,0,
3.9933,276.6,28.8,260.1,360.0,90.6,86.4,-300.6,0,0,7188,0,154,0,
3.9967,270.6,17.1,259.5,356.4,97.2,76.8,-311.1,0,0,7194,0,155,0,
4.0000,263.1,6.3,251.7,352.8,93.6,74.4,-316.2,0,0,7200,0,156,0,
4.0033,268.8,21.3,258.9,353.7,93.9,73.5,-314.1,0,0,7206,0,157,0,
4.0067,261.6,22.5,254.1,357.9,94.5,71.7,-318.6,0,0,7212,0,158,0,
4.0100,255.3,23.1,249.3,353.7,95.4,69.9,-318.0,0,0,7218,0,159,0,
4.0133,266.7,27.0,255.6,353.7,99.9,73.8,-309.6,0,0,7224,0,160,0,
4.0167,265.5,19.8,252.0,352.8,97.5,72.0,-309.6,0,0,7230,0,161,0,
4.0200,271.8,27.3,258.9,358.8,98.4,72.9,-308.1,0,0,7236,0,162,0,
4.0233,266.4,26.1,255.3,353.4,97.2,71.1,-309.0,0,0,7242,0,163,0,
4.0267,263.7,21.0,258.0,351.9,98.1,72.9,-310.2,0,0,7248,0,164,0,
4.0300,262.8,18.6,257.4,352.5,102.6,84.9,-298.5,0,0,7254,0,165,0,
4.0333,279.3,31.8,262.8,354.6,103.5,88.2,-298.2,0,0,7260,0,166,0,
4.0367,271.5,19.8,263.7,350.7,103.5,81.3,-297.6,0,0,7266,0,167,0,
4.0400,283.2,23.7,262.5,351.3,106.5,84.3,-298.5,0,0,7272,0,168,0,
4.0433,270.6,26.4,256.8,350.1,103.8,77.1,-307.8,0,0,7278,0,169,0,
4.0467,275.7,32.7,260.4,352.8,105.9,80.4,-301.5,0,0,7284,0,170,0,
4.0500,274.8,32.4,258.9,349.2,106.2,81.9,-301.8,0,0,7290,0,171,0,
4.0533,267.0,27.3,254.1,350.1,103.8,90.0,-303.0,0,0,7296,0,172,0,
4.0567,276.6,25.2,259.5,354.6,102.9,84.9,-299.7,0,0,7302,0,173,0,
4.0600,272.1,18.9,258.3,354.0,101.7,77.1,-301.2,0,0,7308,0,174,0,
4.0633,276.3,24.6,260.7,355.2,98.1,83.4,-296.7,0,0,7314,0,175,0,
4.0667,273.6,21.3,260.4,353.7,97.2,78.0,-301.2,0,0,7320,0,176,0,
4.0700,270.9,25.2,265.5,358.5,97.8,77.1,-307.5,0,0,7326,0,177,0,
4.0733,270.3,24.6,253.5,352.2,98.4,77.4,-306.9,0,0,7332,0,178,0,
4.0767,268.8,22.5,254.1,350.4,97.8,77.7,-306.3,0,0,7338,0,179,0,
4.0800,267.0,21.6,250.2,352.5,100.8,76.8,-311.7,0,0,7344,0,180,0,
4.0833,267.6,26.4,256.5,353.1,98.4,78.9,-315.6,0,0,7350,0,181,0,
4.0867,260.7,16.2,250.5,349.5,93.0,68.4,-320.1,0,0,7356,0,182,0,
4.0900,261.9,18.6,251.1,348.0,93.3,75.6,-317.1,0,0,7362,0,183,0,
4.0933,263.1,20.1,251.1,348.0,94.2,74.7,-319.5,0,0,7368,0,184,0,
4.0967,265.8,24.6,258.9,349.5,99.6,75.3,-307.5,0,0,7374,0,185,0,
4.1000,254.7,6.0,245.7,338.4,115.8,56.4,-330.6,0,0,7380,0,186,0,
4.1033,272.1,23.4,258.9,351.6,87.3,87.9,-315.9,0,0,7386,0,187,0,
4.1067,262.2,14.1,248.7,349.5,87.0,81.3,-316.2,0,0,7392,0,188,0,
4.1100,267.9,19.5,249.9,347.1,90.9,77.7,-317.4,0,0,7398,0,189,0,
4.1133,273.6,19.5,255.0,349.5,92.1,71.1,-316.8,0,0,7404,0,190,0,
4.1167,274.2,13.2,256.2,349.2,90.3,76.8,-309.0,0,0,7410,0,191,0,
4.1200,270.6,9.6,248.4,348.6,94.5,70.8,-318.6,0,0,7416,0,192,0,
4.1233,266.1,22.2,248.7,351.3,96.0,74.7,-317.4,0,0,7422,0,193,0,
4.1267,263.4,26.1,259.2,351.0,95.4,79.5,-315.6,0,0,7428,0,194,0,
4.1300,267.0,17.7,257.7,351.9,94.8,75.6,-315.0,0,0,7434,0,195,0,
4.1333,273.6,20.4,251.1,352.8,99.6,74.4,-311.4,0,0,7440,0,196,0,
4.1367,262.5,11.4,249.3,346.8,95.7,68.7,-317.1,0,0,7446,0,197,0,
4.1400,264.3,18.3,248.1,348.6,98.7,70.5,-317.1,0,0,7452,0,198,0,
4.1433,269.4,21.3,255.9,351.0,100.2,74.7,-310.8,0,0,7458,0,199,0,
4.1467,265.8,15.0,254.7,348.3,97.8,72.6,-312.6,0,0,7464,0,200,0,
4.1500,266.4,10.8,250.5,346.8,99.0,71.1,-312.9,0,0,7470,0,201,0,
4.1533,269.7,19.5,250.8,345.9,101.1,73.2,-307.8,0,0,7476,0,202,0,
4.1567,268.8,20.7,252.0,345.9,98.4,72.6,-309.9,0,0,7482,0,203,0,
4.1600,259.2,18.0,244.8,338.4,102.0,58.8,-318.0,0,0,7488,0,204,0,
4.1633,254.1,11.4,237.9,336.0,113.1,59.7,-329.1,0,0,7494,0,205,0,
4.1667,271.8,24.6,254.4,346.2,84.6,86.4,-309.3,0,0,7500,0,206,0,
4.1700,261.3,21.0,248.1,345.3,92.7,73.5,-315.9,0,0,7506,0,207,0,
4.1733,255.6,18.0,246.3,345.3,92.1,73.8,-314.1,0,0,7512,0,208,0,
4.1767,262.8,18.3,251.4,341.7,92.4,72.0,-317.4,0,0,7518,0,209,0,
4.1800,262.5,14.7,249.6,344.4,95.4,76.8,-318.0,0,0,7524,0,210,0,
4.1833,264.3,17.7,253.2,348.3,101.4,84.3,-319.5,0,0,7530,0,211,0,
4.1867,261.0,17.7,255.0,346.2,95.1,77.7,-318.0,0,0,7536,0,212,0,
4.1900,259.2,16.5,246.3,347.7,93.9,71.1,-318.6,0,0,7542,0,213,0,
4.1933,266.4,22.5,259.2,350.7,96.3,79.8,-313.8,0,0,7548,0,214,0,
4.1967,261.3,18.6,251.7,349.5,97.2,78.6,-316.8,0,0,7554,0,215,0,
4.2000,265.5,15.6,254.7,348.9,97.2,80.7,-318.3,0,0,7560,0,216,0,
4.2033,266.4,20.1,251.4,347.1,96.6,77.1,-318.6,0,0,7566,0,217,0,
4.2067,264.3,13.2,252.3,343.8,99.3,74.1,-321.9,0,0,7572,0,218,0,
4.2100,258.9,9.6,249.9,343.8,99.9,78.9,-321.0,0,0,7578,0,219,0,
4.2133,257.1,11.7,240.3,342.3,95.4,75.3,-323.1,0,0,7584,0,220,0,
4.2167,262.5,13.2,243.3,345.3,98.1,79.2,-326.4,0,0,7590,0,221,0,
4.2200,261.3,6.0,243.0,341.1,96.6,80.7,-315.9,0,0,7596,0,222,0,
4.2233,263.7,12.3,239.4,338.4,98.4,80.4,-311.4,0,0,7602,0,223,0,
4.2267,259.5,5.7,239.1,339.6,99.0,81.0,-316.2,0,0,7608,0,224,0,
4.2300,260.7,6.0,235.2,339.9,96.3,73.2,-317.4,0,0,7614,0,225,0,
4.2333,266.7,17.1,246.6,343.5,99.9,78.6,-314.7,0,0,7620,0,226,0,
4.2367,260.7,8.7,240.3,339.6,98.4,78.0,-317.7,0,0,7626,0,227,0,
4.2400,258.3,6.0,238.8,339.6,99.0,80.1,-321.3,0,0,7632,0,228,0,
4.2433,261.3,8.4,244.5,340.5,100.2,78.6,-321.3,0,0,7638,0,229,0,
4.2467,258.3,3.0,242.1,343.8,99.0,73.5,-323.7,0,0,7644,0,230,0,
4.2500,258.9,1.5,237.0,339.0,91.2,67.5,-321.6,0,0,7650,0,231,0,
4.2533,256.2,-0.6,236.4,341.1,93.3,72.6,-321.3,0,0,7656,0,232,0,
4.2567,261.0,6.6,239.7,340.5,90.9,66.9,-330.0,0,0,7662,0,233,0,
4.2600,260.7,6.3,246.3,343.5,92.7,73.8,-325.2,0,0,7668,0,234,0,
4.2633,255.9,-5.1,231.9,339.0,89.7,67.8,-344.4,0,0,7674,0,235,0,
4.2667,256.2,-2.1,238.5,335.7,92.4,66.9,-340.2,0,0,7680,0,236,0,
4.2700,254.1,2.4,238.2,336.6,93.6,67.5,-337.8,0,0,7686,0,237,0,
4.2733,255.6,-0.9,232.2,336.9,92.4,69.9,-329.4,0,0,7692,0,238,0,
4.2767,261.9,-1.5,235.5,337.5,95.4,75.6,-321.0,0,0,7698,0,239,0,
4.2800,263.4,-0.6,236.4,340.5,96.3,80.4,-318.9,0,0,7704,0,240,0,
4.2833,251.4,-7.8,232.2,332.7,114.6,61.8,-333.9,0,0,7710,0,241,0,
4.2867,258.6,2.4,235.5,336.6,98.7,86.7,-317.7,0,0,7716,0,242,0,
4.2900,271.5,9.0,243.9,348.9,87.9,91.2,-315.6,0,0,7722,0,243,0,
4.2933,253.2,-1.8,237.6,338.7,91.8,62.7,-328.8,0,0,7728,0,244,0,
4.2967,257.1,4.2,242.1,341.1,93.0,71.7,-321.9,0,0,7734,0,245,0,
4.3000,254.4,-9.3,234.3,333.9,91.8,63.9,-325.5,0,0,7740,0,246,0,
4.3033,251.4,2.7,236.1,338.4,95.1,69.6,-322.5,0,0,7746,0,247,0,
4.3067,249.0,-4.2,233.4,336.6,96.0,70.5,-323.4,0,0,7752,0,248,0,
4.3100,253.2,2.1,234.9,337.5,96.6,73.8,-318.0,0,0,7758,0,249,0,
4.3133,253.2,-4.5,231.9,336.3,94.5,73.8,-314.1,0,0,7764,0,250,0,
4.3167,254.7,-3.9,235.5,337.8,95.4,69.3,-315.0,0,0,7770,0,251,0,
4.3200,253.2,-4.5,239.1,338.7,89.7,59.4,-320.1,0,0,7776,0,252,0,
4.3233,253.8,-3.0,237.0,339.9,95.1,70.2,-318.6,0,0,7782,0,253,0,
4.3267,250.2,-7.5,234.9,339.6,92.7,64.8,-320.1,0,0,7788,0,254,0,
4.3300,249.6,1.2,240.3,339.3,93.3,66.9,-315.3,0,0,7794,0,255,0,
4.3333,249.0,1.8,240.6,338.4,96.0,68.1,-309.9,0,0,7800,0,0,0,
4.3367,255.6,8.4,242.1,339.9,96.6,65.1,-317.4,0,0,7806,0,1,0,
4.3400,255.9,12.0,237.9,338.4,94.8,66.9,-315.3,0,0,7812,0,2,0,
4.3433,253.5,8.4,237.9,337.2,93.9,65.1,-318.3,0,0,7818,0,3,0,
4.3467,253.2,9.0,243.9,340.8,91.8,72.6,-308.4,0,0,7824,0,4,0,
4.3500,260.4,10.8,249.3,345.3,97.5,72.0,-303.3,0,0,7830,0,5,0,
4.3533,252.9,3.3,246.3,343.8,93.6,65.4,-312.6,0,0,7836,0,6,0,
4.3567,253.8,0.3,244.8,339.6,95.4,71.4,-306.0,0,0,7842,0,7,0,
4.3600,254.1,6.6,247.8,337.8,96.3,70.2,-300.6,0,0,7848,0,8,0,
4.3633,251.1,4.2,243.0,335.7,98.1,71.4,-308.1,0,0,7854,0,9,0,
4.3667,256.5,6.9,245.4,335.1,95.4,70.5,-302.7,0,0,7860,0,10,0,
4.3700,245.7,-4.2,237.0,335.1,92.7,67.2,-310.5,0,0,7866,0,11,0,
4.3733,243.0,-4.8,236.7,332.1,107.4,53.7,-317.7,0,0,7872,0,12,0,
4.3767,240.9,-2.1,234.3,328.5,105.3,57.6,-313.5,0,0,7878,0,13,0,
4.3800,258.6,18.0,249.9,335.4,79.5,81.3,-292.5,0,0,7884,0,14,0,
4.3833,249.6,4.8,237.9,331.5,94.8,68.1,-307.2,0,0,7890,0,15,0,
4.3867,248.1,4.8,238.5,330.0,88.8,66.9,-309.6,0,0,7896,0,16,0,
4.3900,248.4,0.9,238.2,328.8,94.2,66.0,-310.8,0,0,7902,0,17,0,
4.3933,242.4,0.6,234.0,326.1,91.2,71.1,-315.3,0,0,7908,0,18,0,
4.3967,253.2,11.1,240.9,333.3,90.0,70.8,-306.3,0,0,7914,0,19,0,
4.4000,252.9,3.6,244.2,337.2,93.0,69.3,-300.9,0,0,7920,0,20,0,
4.4033,248.4,4.2,242.7,338.1,93.3,72.9,-307.5,0,0,7926,0,21,0,
4.4067,257.4,4.8,244.8,336.3,91.8,64.2,-306.3,0,0,7932,0,22,0,
4.4100,256.2,6.9,243.6,339.6,95.1,71.1,-303.9,0,0,7938,0,23,0,
4.4133,252.6,11.7,246.9,339.6,91.5,74.4,-303.0,0,0,7944,0,24,0,
4.4167,251.7,9.6,248.7,339.9,93.3,68.7,-311.4,0,0,7950,0,25,0,
4.4200,255.0,6.3,240.6,339.3,93.0,67.5,-309.9,0,0,7956,0,26,0,
4.4233,262.5,7.8,246.6,339.3,97.5,76.8,-307.8,0,0,7962,0,27,0,
4.4267,255.3,8.7,246.9,338.4,99.0,80.7,-298.8,0,0,7968,0,28,0,
4.4300,251.1,1.2,239.4,337.2,98.4,69.9,-307.2,0,0,7974,0,29,0,
4.4333,258.3,5.4,243.9,339.0,102.0,72.3,-305.1,0,0,7980,0,30,0,
4.4367,260.4,5.4,246.0,338.4,99.0,74.4,-306.9,0,0,7986,0,31,0,
4.4400,252.9,-0.9,238.2,333.6,114.0,60.6,-316.2,0,0,7992,0,32,0,
4.4433,249.9,4.2,243.3,335.4,101.7,62.4,-318.6,0,0,7998,0,33,0,
4.4467,269.4,20.1,248.7,338.1,81.0,84.0,-302.4,0,0,8004,0,34,0,
4.4500,264.3,13.8,244.5,333.0,93.6,75.6,-304.5,0,0,8010,0,35,0,
4.4533,267.0,10.2,250.8,336.9,89.7,74.7,-305.7,0,0,8016,0,36,0,
4.4567,264.6,0.3,251.7,336.6,93.6,78.3,-304.5,0,0,8022,0,37,0,
4.4600,264.0,1.2,251.7,336.6,90.6,72.3,-309.9,0,0,8028,0,38,0,
4.4633,263.1,-0.3,250.2,338.1,92.4,73.2,-312.9,0,0,8034,0,39,0,
4.4667,273.9,20.4,255.0,339.3,96.3,78.3,-304.5,0,0,8040,0,40,0,
4.4700,273.3,20.4,254.4,342.3,96.6,78.0,-299.7,0,0,8046,0,41,0,
4.4733,277.5,28.5,262.5,342.0,97.2,78.0,-299.4,0,0,8052,0,42,0,
4.4767,268.2,17.1,257.7,339.0,92.7,81.3,-292.2,0,0,8058,0,43,0,
4.4800,271.5,17.7,259.2,341.4,93.0,74.7,-303.0,0,0,8064,0,44,0,
4.4833,268.8,17.1,252.0,338.1,93.6,74.4,-301.8,0,0,8070,0,45,0,
4.4867,270.3,25.5,258.3,340.2,102.6,79.5,-298.5,0,0,8076,0,46,0,
4.4900,272.7,24.3,257.4,337.8,98.1,80.1,-298.2,0,0,8082,0,47,0,
4.4933,279.0,28.5,262.8,343.8,100.2,75.3,-296.7,0,0,8088,0,48,0,
4.4967,273.0,21.3,265.8,343.8,96.6,76.2,-303.9,0,0,8094,0,49,0,
4.5000,275.1,26.1,263.1,341.7,100.5,78.6,-294.0,0,0,8100,0,50,0,
4.5033,266.7,12.6,255.0,337.5,96.9,70.8,-300.9,0,0,8106,0,51,0,
4.5067,273.0,19.8,259.8,340.8,96.6,73.5,-299.4,0,0,8112,0,52,0,
4.5100,261.3,12.9,246.6,334.5,112.8,57.0,-314.4,0,0,8118,0,53,0,
4.5133,270.0,19.2,252.6,336.6,102.6,70.8,-310.2,0,0,8124,0,54,0,
4.5167,275.7,28.2,261.9,344.7,83.7,84.6,-298.5,0,0,8130,0,55,0,
4.5200,270.3,18.3,258.0,338.1,98.4,71.1,-307.8,0,0,8136,0,56,0,
4.5233,276.6,20.4,257.4,343.8,98.4,80.7,-297.3,0,0,8142,0,57,0,
4.5267,271.5,17.1,254.1,339.6,96.9,73.8,-304.8,0,0,8148,0,58,0,
4.5300,274.5,18.3,254.7,342.9,100.8,79.8,-301.5,0,0,8154,0,59,0,
4.5333,270.6,24.6,253.2,341.1,104.1,84.3,-303.0,0,0,8160,0,60,0,
4.5367,270.6,25.8,259.8,344.1,105.3,86.1,-304.8,0,0,8166,0,61,0,
4.5400,270.6,23.4,256.8,342.0,101.7,81.0,-310.5,0,0,8172,0,62,0,
4.5433,272.1,20.7,254.4,342.6,100.2,74.7,-306.0,0,0,8178,0,63,0,
4.5467,271.2,18.6,256.2,342.6,101.7,79.8,-303.3,0,0,8184,0,64,0,
4.5500,276.3,19.5,261.0,343.5,102.0,77.7,-297.9,0,0,8190,0,65,0,
4.5533,276.6,16.5,261.6,343.8,101.7,77.4,-300.9,0,0,8196,0,66,0,
4.5567,273.6,26.4,258.3,340.5,99.3,77.1,-307.8,0,0,8202,0,67,0,
4.5600,270.0,22.8,256.8,344.4,100.2,83.7,-314.1,0,0,8208,0,68,0,
4.5633,270.9,13.2,252.3,337.8,100.5,71.1,-319.2,0,0,8214,0,69,0,
4.5667,261.0,4.8,249.6,332.1,110.4,64.2,-309.0,0,0,8220,0,70,0,
4.5700,276.0,18.6,263.4,343.2,83.1,92.1,-297.9,0,0,8226,0,71,0,
4.5733,264.9,15.3,256.2,340.8,94.8,78.0,-296.7,0,0,8232,0,72,0,
4.5767,266.1,18.3,251.7,340.5,93.6,75.9,-304.2,0,0,8238,0,73,0,
4.5800,264.6,16.2,254.7,340.5,91.8,74.1,-297.6,0,0,8244,0,74,0,
4.5833,267.3,23.4,252.9,338.4,93.3,75.3,-298.5,0,0,8250,0,75,0,
4.5867,267.0,17.4,250.5,336.0,101.7,77.7,-302.7,0,0,8256,0,76,0,
4.5900,259.8,9.9,253.8,337.8,94.2,75.3,-300.3,0,0,8262,0,77,0,
4.5933,263.7,7.2,250.8,337.5,98.1,76.8,-300.3,0,0,8268,0,78,0,
4.5967,266.4,12.9,251.4,334.8,96.3,76.2,-308.7,0,0,8274,0,79,0,
4.6000,271.8,16.5,257.4,339.0,100.8,82.5,-302.7,0,0,8280,0,80,0,
4.6033,267.6,12.0,253.8,337.8,101.1,82.5,-306.9,0,0,8286,0,81,0,
4.6067,274.8,13.5,259.2,338.1,101.1,84.0,-303.3,0,0,8292,0,82,0,
4.6100,275.1,17.1,257.4,338.4,102.0,83.7,-304.2,0,0,8298,0,83,0,
4.6133,278.7,13.8,258.9,339.6,100.5,76.8,-302.4,0,0,8304,0,84,0,
4.6167,270.9,8.1,250.5,338.4,97.2,70.8,-312.3,0,0,8310,0,85,0,
4.6200,267.3,7.5,249.6,336.6,97.8,69.0,-319.5,0,0,8316,0,86,0,
4.6233,268.5,13.5,252.0,339.3,100.2,76.8,-312.6,0,0,8322,0,87,0,
4.6267,272.4,12.3,250.5,339.0,101.1,78.0,-311.1,0,0,8328,0,88,0,
4.6300,272.1,7.8,249.9,339.9,102.0,78.0,-312.6,0,0,8334,0,89,0,
4.6333,275.7,4.2,251.1,336.3,103.5,80.7,-308.1,0,0,8340,0,90,0,
4.6367,261.3,-0.3,238.5,331.2,113.1,59.7,-323.4,0,0,8346,0,91,0,
4.6400,268.2,3.6,246.9,334.2,106.8,75.6,-312.0,0,0,8352,0,92,0,
4.6433,276.9,14.7,255.6,342.0,89.1,93.9,-303.9,0,0,8358,0,93,0,
4.6467,271.5,10.5,248.1,339.9,95.4,80.4,-310.8,0,0,8364,0,94,0,
4.6500,268.5,14.7,258.0,343.8,93.3,84.3,-308.1,0,0,8370,0,95,0,
4.6533,271.8,14.7,253.5,342.6,95.7,77.1,-310.5,0,0,8376,0,96,0,
4.6567,270.3,10.8,251.4,342.0,97.5,81.3,-306.6,0,0,8382,0,97,0,
4.6600,272.4,15.3,255.3,341.7,100.8,78.6,-311.1,0,0,8388,0,98,0,
4.6633,270.9,15.9,248.1,339.3,100.2,75.6,-314.1,0,0,8394,0,99,0,
4.6667,264.9,12.9,251.4,337.5,100.8,75.0,-317.1,0,0,8400,0,100,0,
4.6700,271.8,11.4,247.5,336.9,99.6,80.4,-315.6,0,0,8406,0,101,0,
4.6733,269.7,7.5,245.1,336.0,101.4,80.1,-308.4,0,0,8412,0,102,0,
4.6767,272.4,13.2,242.7,337.8,101.7,80.4,-306.9,0,0,8418,0,103,0,
4.6800,274.5,19.2,248.4,338.7,109.5,94.2,-303.3,0,0,8424,0,104,0,
4.6833,277.8,18.9,245.4,339.0,104.4,79.8,-303.9,0,0,8430,0,105,0,
4.6867,275.1,15.6,247.8,338.7,103.5,86.7,-306.0,0,0,8436,0,106,0,
4.6900,267.9,13.5,252.6,338.1,102.3,82.8,-308.1,0,0,8442,0,107,0,
4.6933,270.3,15.0,253.2,336.9,102.3,82.5,-313.5,0,0,8448,0,108,0,
4.6967,270.6,18.6,250.8,339.0,100.5,79.5,-310.8,0,0,8454,0,109,0,
4.7000,272.1,22.5,253.5,340.2,104.7,84.9,-311.1,0,0,8460,0,110,0,
4.7033,265.8,17.7,254.4,336.6,100.2,76.5,-310.8,0,0,8466,0,111,0,
4.7067,254.1,0.9,236.4,333.0,117.6,59.1,-322.2,0,0,8472,0,112,0,
4.7100,261.3,9.9,240.3,339.0,100.5,81.9,-314.4,0,0,8478,0,113,0,
4.7133,277.5,20.1,251.7,343.5,94.8,99.6,-298.8,0,0,8484,0,114,0,
4.7167,261.6,6.0,241.8,333.9,100.8,79.2,-313.5,0,0,8490,0,115,0,
4.7200,271.5,15.9,252.3,335.7,102.0,84.0,-302.1,0,0,8496,0,116,0,
4.7233,272.7,19.2,256.8,338.4,103.5,85.5,-301.5,0,0,8502,0,117,0,
4.7267,264.9,11.7,249.9,334.5,101.1,79.5,-307.2,0,0,8508,0,118,0,
4.7300,267.9,15.6,249.3,336.9,99.3,81.6,-312.0,0,0,8514,0,119,0,
4.7333,260.7,12.9,242.7,331.8,99.3,78.0,-306.3,0,0,8520,0,120,0,
4.7367,271.8,17.4,247.5,335.4,100.2,77.7,-315.9,0,0,8526,0,121,0,
4.7400,269.4,17.1,242.7,333.3,100.5,78.9,-312.3,0,0,8532,0,122,0,
4.7433,268.5,20.1,246.0,334.8,101.7,84.6,-315.6,0,0,8538,0,123,0,
4.7467,267.3,15.0,241.8,331.5,99.9,88.8,-312.3,0,0,8544,0,124,0,
4.7500,265.8,18.9,246.6,336.0,99.6,82.5,-310.2,0,0,8550,0,125,0,
4.7533,264.3,10.8,240.6,334.8,99.3,83.4,-313.8,0,0,8556,0,126,0,
4.7567,263.7,6.3,241.2,333.3,94.5,75.0,-324.0,0,0,8562,0,127,0,
4.7600,264.6,5.1,234.3,327.6,94.8,79.8,-321.9,0,0,8568,0,128,0,
4.7633,265.5,9.0,237.6,330.9,96.3,77.1,-318.0,0,0,8574,0,129,0,
4.7667,265.2,9.3,249.0,332.7,98.7,75.3,-317.1,0,0,8580,0,130,0,
4.7700,267.6,9.6,245.1,333.9,101.1,75.3,-318.9,0,0,8586,0,131,0,
4.7733,268.8,8.7,243.0,334.8,97.8,78.3,-322.5,0,0,8592,0,132,0,
4.7767,270.0,7.8,242.7,336.9,97.2,80.1,-321.3,0,0,8598,0,133,0,
4.7800,261.3,0.3,238.8,332.4,95.1,76.2,-331.5,0,0,8604,0,134,0,
4.7833,253.2,-2.7,235.8,334.2,95.7,81.0,-324.9,0,0,8610,0,135,0,
4.7867,266.7,7.8,243.6,341.7,95.4,71.7,-332.4,0,0,8616,0,136,0,
4.7900,267.0,4.2,245.7,339.3,95.1,70.2,-324.6,0,0,8622,0,137,0,
4.7933,253.2,4.8,239.4,337.8,103.8,60.0,-336.6,0,0,8628,0,138,0,
4.7967,256.8,-0.9,233.7,330.0,106.2,62.4,-330.6,0,0,8634,0,139,0,
4.8000,279.0,13.8,252.6,345.6,82.2,93.3,-309.9,0,0,8640,0,140,0,
4.8033,269.4,18.3,248.4,344.1,100.8,83.1,-316.2,0,0,8646,0,141,0,
4.8067,270.0,20.4,248.1,343.8,95.1,84.9,-315.6,0,0,8652,0,142,0,
4.8100,266.4,23.4,248.7,340.5,96.0,81.3,-317.7,0,0,8658,0,143,0,
4.8133,270.6,24.6,248.7,334.2,94.5,78.6,-318.3,0,0,8664,0,144,0,
4.8167,269.1,21.9,246.0,334.8,98.4,83.1,-320.1,0,0,8670,0,145,0,
4.8200,262.8,19.8,243.3,333.6,94.2,75.6,-322.5,0,0,8676,0,146,0,
4.8233,264.9,14.4,248.4,338.4,94.5,75.6,-322.8,0,0,8682,0,147,0,
4.8267,260.7,15.6,252.9,336.0,95.1,84.0,-326.1,0,0,8688,0,148,0,
4.8300,268.8,27.0,249.9,343.8,102.6,91.8,-311.7,0,0,8694,0,149,0,
4.8333,262.5,19.2,240.9,338.1,97.8,83.4,-321.9,0,0,8700,0,150,0,
4.8367,259.8,11.7,247.5,338.7,93.9,72.0,-324.0,0,0,8706,0,151,0,
4.8400,259.2,12.3,243.6,336.0,93.0,71.7,-328.2,0,0,8712,0,152,0,
4.8433,258.6,12.0,247.5,338.1,93.6,69.9,-332.1,0,0,8718,0,153,0,
4.8467,260.4,15.6,246.6,334.2,97.2,79.2,-340.2,0,0,8724,0,154,0,
4.8500,261.3,11.4,246.9,334.2,96.6,68.4,-341.4,0,0,8730,0,155,0,
4.8533,257.7,14.7,247.2,337.8,96.3,75.6,-341.1,0,0,8736,0,156,0,
4.8567,259.2,10.8,245.1,335.1,91.8,72.9,-338.4,0,0,8742,0,157,0,
4.8600,262.8,15.3,248.4,333.0,96.0,62.7,-346.5,0,0,8748,0,158,0,
4.8633,253.5,2.4,237.0,329.4,111.3,57.9,-349.2,0,0,8754,0,159,0,
4.8667,268.5,17.4,251.7,341.1,81.9,83.7,-336.9,0,0,8760,0,160,0,
4.8700,255.9,13.5,237.9,335.7,90.3,72.9,-340.2,0,0,8766,0,161,0,
4.8733,261.0,16.5,240.9,335.7,88.8,75.3,-338.1,0,0,8772,0,162,0,
4.8767,263.7,14.4,240.6,336.3,95.4,75.0,-341.1,0,0,8778,0,163,0,
4.8800,264.9,12.3,238.5,337.5,96.9,78.3,-337.8,0,0,8784,0,164,0,
4.8833,263.4,18.6,245.4,339.0,97.2,72.6,-335.7,0,0,8790,0,165,0,
4.8867,264.3,18.9,247.2,341.1,98.1,74.1,-336.6,0,0,8796,0,166,0,
4.8900,259.5,10.8,235.8,338.1,97.8,75.6,-337.5,0,0,8802,0,167,0,
4.8933,265.2,17.4,243.9,339.3,93.3,72.9,-334.2,0,0,8808,0,168,0,
4.8967,268.2,21.3,246.9,339.3,100.8,81.0,-333.3,0,0,8814,0,169,0,
4.9000,267.9,24.0,251.1,340.8,93.9,79.2,-335.7,0,0,8820,0,170,0,
4.9033,265.8,22.2,247.5,339.6,93.0,81.0,-333.3,0,0,8826,0,171,0,
4.9067,266.4,13.5,241.2,337.2,87.3,67.5,-338.1,0,0,8832,0,172,0,
4.9100,258.6,10.8,242.7,339.3,93.3,74.7,-344.1,0,0,8838,0,173,0,
4.9133,261.9,12.9,246.6,341.4,96.6,81.9,-334.2,0,0,8844,0,174,0,
4.9167,254.4,8.7,239.7,337.5,93.6,89.7,-332.7,0,0,8850,0,175,0,
4.9200,270.3,18.3,243.9,341.1,94.5,81.9,-334.8,0,0,8856,0,176,0,
4.9233,268.5,18.3,241.8,339.9,98.1,75.9,-324.6,0,0,8862,0,177,0,
4.9267,266.4,17.1,243.3,341.1,99.0,78.0,-332.1,0,0,8868,0,178,0,
4.9300,263.7,22.2,242.1,339.3,97.2,81.9,-335.7,0,0,8874,0,179,0,
4.9333,265.8,16.8,240.9,338.7,99.0,74.7,-335.7,0,0,8880,0,180,0,
4.9367,264.6,25.8,251.1,339.9,96.0,70.8,-333.0,0,0,8886,0,181,0,
4.9400,252.3,9.6,234.0,333.3,116.4,57.6,-342.6,0,0,8892,0,182,0,
4.9433,271.2,22.5,239.4,342.0,90.3,91.5,-324.0,0,0,8898,0,183,0,
4.9467,269.7,23.7,242.4,339.6,90.9,83.1,-324.3,0,0,8904,0,184,0,
4.9500,264.3,24.0,241.8,343.5,95.7,82.2,-327.0,0,0,8910,0,185,0,
4.9533,267.6,21.3,239.7,340.2,93.6,84.3,-328.2,0,0,8916,0,186,0,
4.9567,260.1,17.7,239.4,340.2,93.6,75.9,-334.2,0,0,8922,0,187,0,
4.9600,261.9,23.1,239.7,338.4,89.7,76.2,-340.2,0,0,8928,0,188,0,
4.9633,263.1,20.4,239.4,341.7,92.7,81.6,-334.5,0,0,8934,0,189,0,
4.9667,267.3,18.9,243.6,345.3,97.8,80.4,-336.3,0,0,8940,0,190,0,
4.9700,267.6,21.9,244.5,344.1,98.1,81.0,-327.3,0,0,8946,0,191,0,
4.9733,261.6,25.8,241.8,341.1,95.7,82.8,-328.5,0,0,8952,0,192,0,
4.9767,268.8,28.2,246.3,343.2,94.5,87.3,-320.4,0,0,8958,0,193,0,
4.9800,268.2,20.7,243.9,340.5,91.5,70.8,-339.6,0,0,8964,0,194,0,
4.9833,272.7,25.8,244.8,342.0,91.8,80.7,-329.7,0,0,8970,0,195,0,
4.9867,268.5,21.0,249.3,339.9,89.1,76.2,-332.1,0,0,8976,0,196,0,
4.9900,266.1,22.8,240.0,341.1,91.2,79.2,-333.6,0,0,8982,0,197,0,
4.9933,269.1,20.1,234.9,337.5,94.5,80.4,-330.3,0,0,8988,0,198,0,
4.9967,272.1,30.6,242.1,342.6,99.9,83.4,-324.9,0,0,8994,0,199,0,
5.0000,274.5,29.1,246.3,345.0,97.8,86.1,-327.0,0,0,9000,0,200,0,
5.0033,261.9,14.1,225.0,331.2,111.3,61.2,-346.2,0,0,9006,0,201,0,
5.0067,263.7,22.8,235.8,335.1,97.5,82.5,-336.9,0,0,9012,0,202,0,
5.0100,279.6,31.2,245.1,345.0,86.4,100.8,-318.6,0,0,9018,0,203,0,
5.0133,272.1,21.3,243.9,337.2,96.9,85.8,-330.6,0,0,9024,0,204,0,
5.0167,270.3,19.5,240.0,338.4,88.8,78.0,-338.1,0,0,9030,0,205,0,
5.0200,267.0,18.3,241.5,334.2,91.2,76.2,-344.4,0,0,9036,0,206,0,
5.0233,267.0,20.7,236.1,329.4,90.6,79.5,-339.6,0,0,9042,0,207,0,
5.0267,267.0,18.0,237.0,331.5,91.2,76.5,-349.8,0,0,9048,0,208,0,
5.0300,260.7,18.6,237.6,329.1,89.1,72.9,-348.0,0,0,9054,0,209,0,
5.0333,263.7,12.3,234.0,327.3,88.5,71.1,-354.6,0,0,9060,0,210,0,
5.0367,262.8,3.6,234.0,328.5,88.8,75.3,-351.3,0,0,9066,0,211,0,
5.0400,267.0,9.0,234.6,329.7,92.4,76.5,-348.0,0,0,9072,0,212,0,
5.0433,266.7,14.4,236.1,331.2,91.8,82.5,-344.7,0,0,9078,0,213,0,
5.0467,265.8,11.4,236.4,329.4,90.0,69.9,-347.4,0,0,9084,0,214,0,
5.0500,263.4,5.4,234.0,329.4,92.4,77.1,-353.1,0,0,9090,0,215,0,
5.0533,258.9,4.8,234.9,330.3,91.2,70.2,-357.3,0,0,9096,0,216,0,
5.0567,263.7,9.3,232.5,327.6,90.6,78.0,-351.9,0,0,9102,0,217,0,
5.0600,263.1,9.9,234.6,331.2,89.7,69.3,-365.1,0,0,9108,0,218,0,
5.0633,263.7,6.6,234.9,333.6,93.0,73.5,-360.9,0,0,9114,0,219,0,
5.0667,269.4,14.7,243.0,337.8,93.3,74.4,-357.9,0,0,9120,0,220,0,
5.0700,267.0,12.3,235.2,336.3,93.3,77.7,-357.6,0,0,9126,0,221,0,
5.0733,269.4,17.4,231.0,337.2,97.5,77.7,-356.1,0,0,9132,0,222,0,
5.0767,266.1,20.7,239.4,336.3,92.7,76.2,-355.8,0,0,9138,0,223,0,
5.0800,264.0,20.4,238.5,336.6,91.5,74.1,-357.0,0,0,9144,0,224,0,
5.0833,256.2,9.6,234.9,331.5,93.6,66.6,-364.8,0,0,9150,0,225,0,
5.0867,246.0,1.8,227.7,328.5,108.9,54.0,-373.5,0,0,9156,0,226,0,
5.0900,271.2,19.8,244.5,340.5,79.2,89.4,-352.5,0,0,9162,0,227,0,
5.0933,264.0,12.0,236.1,337.8,89.7,78.9,-357.3,0,0,9168,0,228,0,
5.0967,264.3,12.9,239.1,336.6,89.1,79.2,-355.2,0,0,9174,0,229,0,
5.1000,265.5,15.3,234.6,336.3,91.5,81.3,-346.8,0,0,9180,0,230,0,
5.1033,262.8,13.5,234.3,333.0,88.2,79.5,-343.5,0,0,9186,0,231,0,
5.1067,254.7,6.6,228.3,332.7,90.6,73.5,-352.2,0,0,9192,0,232,0,
5.1100,255.3,10.8,229.5,331.8,88.5,72.6,-352.5,0,0,9198,0,233,0,
5.1133,260.7,12.0,234.6,331.5,93.3,80.7,-335.1,0,0,9204,0,234,0,
5.1167,265.5,0.0,231.6,334.8,92.4,76.2,-347.7,0,0,9210,0,235,0,
5.1200,258.0,3.3,231.3,333.6,90.6,76.2,-349.2,0,0,9216,0,236,0,
5.1233,261.0,11.1,233.4,336.6,88.5,66.3,-351.9,0,0,9222,0,237,0,
5.1267,266.7,21.6,236.7,337.2,95.4,66.6,-344.1,0,0,9228,0,238,0,
5.1300,271.5,26.7,236.1,336.9,92.7,69.6,-334.8,0,0,9234,0,239,0,
5.1333,276.9,25.8,240.0,336.3,93.0,74.7,-329.7,0,0,9240,0,240,0,
5.1367,275.7,23.4,243.3,339.9,94.2,76.2,-330.6,0,0,9246,0,241,0,
5.1400,271.8,21.0,235.5,333.9,92.4,72.9,-331.2,0,0,9252,0,242,0,
5.1433,266.7,16.5,235.2,330.9,97.8,60.9,-341.4,0,0,9258,0,243,0,
5.1467,264.3,10.8,234.0,332.1,103.8,63.3,-341.4,0,0,9264,0,244,0,
5.1500,283.5,23.1,246.3,337.5,76.8,90.0,-321.6,0,0,9270,0,245,0,
5.1533,270.3,12.3,241.5,328.8,87.9,74.7,-333.9,0,0,9276,0,246,0,
5.1567,270.6,12.6,235.2,330.6,85.5,77.7,-332.1,0,0,9282,0,247,0,
5.1600,269.1,18.6,233.4,329.7,87.3,74.4,-333.0,0,0,9288,0,248,0,
5.1633,266.7,12.9,233.1,330.6,88.5,66.3,-345.9,0,0,9294,0,249,0,
5.1667,252.3,5.4,236.4,327.0,89.4,65.7,-345.9,0,0,9300,0,250,0,
5.1700,264.6,9.3,233.7,325.8,88.2,71.1,-334.5,0,0,9306,0,251,0,
5.1733,275.7,13.5,240.3,331.5,90.3,72.9,-315.9,0,0,9312,0,252,0,
5.1767,275.1,13.5,240.9,327.9,90.0,71.1,-318.9,0,0,9318,0,253,0,
5.1800,276.3,10.5,233.4,329.1,90.0,73.8,-323.7,0,0,9324,0,254,0,
5.1833,272.4,6.6,231.9,327.9,90.3,72.0,-321.6,0,0,9330,0,255,0,
5.1867,273.3,0.6,234.6,329.4,95.1,81.3,-316.8,0,0,9336,0,0,0,
5.1900,275.7,-0.9,232.2,327.3,96.9,75.6,-314.1,0,0,9342,0,1,0,
5.1933,273.0,-0.3,233.1,326.7,92.4,78.6,-312.6,0,0,9348,0,2,0,
5.1967,275.1,2.7,232.8,329.1,92.1,78.9,-322.2,0,0,9354,0,3,0,
5.2000,273.0,-1.5,232.5,324.9,90.9,78.9,-318.6,0,0,9360,0,4,0,
5.2033,273.3,-10.5,231.6,328.5,95.7,78.0,-325.2,0,0,9366,0,5,0,
5.2067,278.7,-6.3,227.4,327.6,92.4,81.3,-320.7,0,0,9372,0,6,0,
5.2100,270.0,-9.0,227.7,325.5,94.2,82.5,-323.1,0,0,9378,0,7,0,
5.2133,273.0,-6.9,224.7,324.0,90.3,82.2,-327.0,0,0,9384,0,8,0,
5.2167,262.8,-18.0,217.8,315.9,107.7,54.3,-338.1,0,0,9390,0,9,0,
5.2200,276.9,-3.9,229.8,329.4,89.4,86.7,-317.4,0,0,9396,0,10,0,
5.2233,275.4,-2.4,230.7,327.6,88.8,83.7,-318.3,0,0,9402,0,11,0,
5.2267,279.0,-1.2,230.1,326.4,93.9,79.2,-319.2,0,0,9408,0,12,0,
5.2300,269.7,-15.9,227.7,323.4,91.8,72.6,-325.5,0,0,9414,0,13,0,
5.2333,273.3,-23.7,226.5,327.0,94.5,76.5,-328.2,0,0,9420,0,14,0,
5.2367,268.8,-14.7,224.7,323.7,94.5,76.2,-328.8,0,0,9426,0,15,0,
5.2400,263.4,-7.2,224.1,324.9,91.5,74.4,-337.5,0,0,9432,0,16,0,
5.2433,264.0,-10.2,222.0,322.8,88.8,64.8,-339.0,0,0,9438,0,17,0,
5.2467,266.1,-15.6,226.5,324.3,86.1,63.9,-342.3,0,0,9444,0,18,0,
5.2500,275.4,-5.7,230.4,326.4,90.3,73.5,-336.9,0,0,9450,0,19,0,
5.2533,273.3,-6.9,231.0,326.1,91.2,72.9,-335.7,0,0,9456,0,20,0,
5.2567,268.5,-9.3,235.5,326.1,87.9,69.0,-333.0,0,0,9462,0,21,0,
5.2600,265.5,-11.7,230.1,324.0,90.9,66.9,-335.1,0,0,9468,0,22,0,
5.2633,267.6,-6.0,228.0,326.1,90.6,73.2,-340.2,0,0,9474,0,23,0,
5.2667,259.5,-7.2,225.3,321.9,85.5,74.4,-334.2,0,0,9480,0,24,0,
5.2700,274.8,-4.8,228.3,322.8,86.1,67.8,-334.2,0,0,9486,0,25,0,
5.2733,271.2,-1.8,229.2,327.0,88.8,71.1,-329.4,0,0,9492,0,26,0,
5.2767,272.7,-7.2,227.7,327.0,87.0,73.5,-327.6,0,0,9498,0,27,0,
5.2800,270.3,-2.7,221.7,325.5,90.9,79.2,-328.2,0,0,9504,0,28,0,
5.2833,277.8,3.9,236.4,330.3,90.3,79.8,-326.4,0,0,9510,0,29,0,
5.2867,271.8,-3.0,233.1,326.7,91.2,70.2,-334.2,0,0,9516,0,30,0,
5.2900,276.6,-6.6,228.0,326.1,94.5,74.1,-334.5,0,0,9522,0,31,0,
5.2933,261.6,-17.1,214.5,317.7,109.8,51.9,-348.9,0,0,9528,0,32,0,
5.2967,286.5,3.3,235.2,330.9,85.5,95.1,-322.5,0,0,9534,0,33,0,
5.3000,281.4,-0.6,230.7,331.5,86.7,86.7,-327.0,0,0,9540,0,34,0,
5.3033,277.8,-3.6,229.2,330.3,92.7,89.7,-331.5,0,0,9546,0,35,0,
5.3067,275.1,-8.7,226.8,326.4,91.2,80.4,-335.4,0,0,9552,0,36,0,
5.3100,274.5,-1.5,226.5,327.9,92.4,79.2,-332.1,0,0,9558,0,37,0,
5.3133,274.2,-3.6,224.1,325.2,88.2,73.2,-338.1,0,0,9564,0,38,0,
5.3167,273.0,-10.5,226.2,324.0,90.3,71.4,-336.9,0,0,9570,0,39,0,
5.3200,271.2,-12.6,225.0,325.8,90.0,69.0,-341.4,0,0,9576,0,40,0,
5.3233,273.9,-6.6,224.1,323.1,90.9,76.2,-337.2,0,0,9582,0,41,0,
5.3267,269.7,-10.8,222.0,323.7,87.3,71.7,-342.6,0,0,9588,0,42,0,
5.3300,267.6,-15.9,226.8,324.3,86.7,69.6,-343.5,0,0,9594,0,43,0,
5.3333,269.4,-21.3,219.9,327.0,86.1,70.5,-345.6,0,0,9600,0,44,0,
5.3367,272.4,-13.5,222.6,324.9,86.7,69.6,-346.2,0,0,9606,0,45,0,
5.3400,273.0,-21.9,220.2,323.7,84.6,66.3,-349.2,0,0,9612,0,46,0,
5.3433,268.2,-12.6,222.0,321.0,86.4,70.5,-352.8,0,0,9618,0,47,0,
5.3467,267.6,-9.3,223.5,323.7,84.3,69.0,-352.5,0,0,9624,0,48,0,
5.3500,267.6,-10.5,220.8,321.0,87.9,81.0,-338.4,0,0,9630,0,49,0,
5.3533,273.6,-18.0,219.6,320.1,84.3,65.4,-351.6,0,0,9636,0,50,0,
5.3567,270.3,-22.5,221.4,321.3,81.9,67.5,-345.9,0,0,9642,0,51,0,
5.3600,270.9,-15.9,225.9,322.8,86.1,68.7,-348.0,0,0,9648,0,52,0,
5.3633,276.0,-8.7,229.8,324.6,87.3,72.6,-340.2,0,0,9654,0,53,0,
5.3667,264.0,-21.6,216.9,318.6,103.8,51.9,-347.7,0,0,9660,0,54,0,
5.3700,275.7,-7.8,227.7,328.5,76.8,78.3,-338.7,0,0,9666,0,55,0,
5.3733,276.3,-5.7,231.3,331.2,82.2,78.0,-342.9,0,0,9672,0,56,0,
5.3767,275.7,-15.3,229.5,328.2,87.0,73.5,-345.0,0,0,9678,0,57,0,
5.3800,282.0,-7.2,228.0,330.3,91.5,78.9,-339.9,0,0,9684,0,58,0,
5.3833,272.7,-6.6,228.3,325.5,88.5,80.1,-342.0,0,0,9690,0,59,0,
5.3867,271.5,-4.2,235.5,328.2,90.6,79.8,-342.9,0,0,9696,0,60,0,
5.3900,277.2,-5.7,230.1,324.6,84.9,72.0,-341.1,0,0,9702,0,61,0,
5.3933,272.7,-9.6,226.8,324.0,85.2,73.5,-343.5,0,0,9708,0,62,0,
5.3967,271.8,-9.9,227.7,321.0,85.2,71.7,-347.4,0,0,9714,0,63,0,
5.4000,272.7,-15.0,225.3,326.1,88.2,68.4,-341.7,0,0,9720,0,64,0,
5.4033,271.2,-21.9,222.9,324.0,88.5,67.8,-348.0,0,0,9726,0,65,0,
5.4067,261.6,-16.8,229.5,326.1,87.9,67.8,-349.8,0,0,9732,0,66,0,
5.4100,264.0,-15.6,226.5,322.5,86.1,68.7,-349.5,0,0,9738,0,67,0,
5.4133,277.8,0.3,236.1,326.1,84.9,66.0,-346.2,0,0,9744,0,68,0,
5.4167,273.3,1.2,235.2,327.6,87.6,68.7,-342.3,0,0,9750,0,69,0,
5.4200,273.9,-4.8,236.7,327.9,89.4,69.9,-346.8,0,0,9756,0,70,0,
5.4233,270.0,0.0,230.1,325.8,88.5,72.9,-349.5,0,0,9762,0,71,0,
5.4267,270.3,2.4,234.0,322.8,85.8,63.0,-351.6,0,0,9768,0,72,0,
5.4300,261.6,-6.9,230.4,324.0,85.5,65.4,-357.6,0,0,9774,0,73,0,
5.4333,279.0,3.6,231.0,322.8,84.9,71.7,-346.2,0,0,9780,0,74,0,
5.4367,277.2,1.5,234.9,325.2,84.9,71.1,-349.8,0,0,9786,0,75,0,
5.4400,269.7,-2.4,230.4,323.4,86.7,69.3,-353.4,0,0,9792,0,76,0,
5.4433,272.1,-4.8,225.9,318.3,81.3,70.2,-350.4,0,0,9798,0,77,0,
5.4467,270.3,-17.1,224.1,321.0,86.1,70.8,-355.5,0,0,9804,0,78,0,
5.4500,263.7,-13.8,217.5,316.8,93.6,57.3,-363.0,0,0,9810,0,79,0,
5.4533,260.7,-17.4,215.1,315.9,97.2,59.4,-365.1,0,0,9816,0,80,0,
5.4567,269.4,-6.0,228.9,322.5,69.3,84.6,-355.2,0,0,9822,0,81,0,
5.4600,267.6,-11.7,221.1,325.5,87.9,74.4,-360.9,0,0,9828,0,82,0,
5.4633,266.1,-9.6,223.5,321.3,83.7,74.4,-365.1,0,0,9834,0,83,0,
5.4667,266.4,-16.8,221.4,320.4,88.5,69.9,-363.6,0,0,9840,0,84,0,
5.4700,270.3,-12.6,223.2,321.3,87.3,74.7,-358.5,0,0,9846,0,85,0,
5.4733,271.5,-15.3,222.3,317.1,87.9,72.0,-359.4,0,0,9852,0,86,0,
5.4767,271.5,-14.7,226.5,320.4,88.5,72.0,-362.4,0,0,9858,0,87,0,
5.4800,274.2,-12.6,219.6,319.8,90.0,70.2,-367.5,0,0,9864,0,88,0,
5.4833,274.8,-11.4,222.0,321.6,87.6,69.3,-365.1,0,0,9870,0,89,0,
5.4867,267.6,-11.1,221.7,319.8,90.0,72.0,-368.4,0,0,9876,0,90,0,
5.4900,265.2,-8.1,220.5,321.3,91.8,68.4,-368.4,0,0,9882,0,91,0,
5.4933,272.1,-8.1,221.4,320.7,89.1,65.4,-370.8,0,0,9888,0,92,0,
5.4967,261.9,-13.2,222.6,320.7,87.9,63.9,-370.5,0,0,9894,0,93,0,
5.5000,262.8,-17.7,220.5,317.1,84.6,67.8,-373.2,0,0,9900,0,94,0,
5.5033,267.0,-10.8,224.4,321.9,87.6,66.9,-373.5,0,0,9906,0,95,0,
5.5067,261.6,-16.8,224.1,319.8,88.8,68.1,-369.3,0,0,9912,0,96,0,
5.5100,260.4,-14.1,223.8,320.4,85.8,63.9,-370.8,0,0,9918,0,97,0,
5.5133,252.3,-18.9,220.5,315.6,104.4,40.5,-377.1,0,0,9924,0,98,0,
5.5167,270.0,-8.1,234.3,323.7,86.7,65.4,-365.4,0,0,9930,0,99,0,
5.5200,273.0,-4.5,234.3,328.2,77.1,78.9,-362.1,0,0,9936,0,100,0,
5.5233,271.2,-7.2,224.4,324.6,86.7,64.2,-365.4,0,0,9942,0,101,0,
5.5267,278.7,0.0,231.3,328.8,91.8,71.4,-358.5,0,0,9948,0,102,0,
5.5300,272.7,-9.0,231.3,324.6,89.7,70.8,-363.3,0,0,9954,0,103,0,
5.5333,274.8,-7.8,231.3,321.6,89.7,68.1,-373.2,0,0,9960,0,104,0,
5.5367,268.2,-9.6,230.4,322.8,86.7,72.3,-374.1,0,0,9966,0,105,0,
5.5400,262.8,-12.9,225.0,321.3,84.6,68.4,-378.6,0,0,9972,0,106,0,
5.5433,267.0,-16.2,228.6,323.4,84.9,61.8,-384.3,0,0,9978,0,107,0,
5.5467,268.5,-16.2,229.8,324.0,84.6,62.1,-378.0,0,0,9984,0,108,0,
5.5500,267.0,-12.0,230.4,323.7,89.4,70.2,-371.7,0,0,9990,0,109,0,
5.5533,272.7,-12.0,227.4,323.1,88.5,67.8,-374.7,0,0,9996,0,110,0,
5.5567,266.7,-15.6,223.8,321.0,86.1,65.1,-378.0,0,0,10002,0,111,0,
5.5600,271.2,-12.9,222.6,320.4,87.9,68.7,-370.5,0,0,10008,0,112,0,
5.5633,273.0,-9.0,225.6,324.0,89.1,69.3,-367.2,0,0,10014,0,113,0,
5.5667,273.6,-6.0,227.1,322.5,90.6,73.2,-367.2,0,0,10020,0,114,0,
5.5700,267.6,-8.1,226.8,320.4,90.6,63.3,-375.6,0,0,10026,0,115,0,
5.5733,264.3,-11.4,224.4,323.4,87.6,67.8,-376.8,0,0,10032,0,116,0,
5.5767,273.0,-7.5,232.2,321.0,87.6,66.9,-376.5,0,0,10038,0,117,0,
5.5800,260.7,-10.2,231.9,320.7,91.5,64.5,-371.4,0,0,10044,0,118,0,
5.5833,258.9,-16.8,219.9,316.5,102.6,49.8,-393.0,0,0,10050,0,119,0,
5.5867,268.2,-8.1,230.4,324.3,71.7,82.2,-378.0,0,0,10056,0,120,0,
5.5900,265.5,-11.7,228.9,324.9,84.9,75.9,-384.6,0,0,10062,0,121,0,
5.5933,266.4,-3.9,231.3,322.2,81.9,74.7,-378.0,0,0,10068,0,122,0,
5.5967,264.9,-9.0,229.5,321.0,85.5,68.1,-384.6,0,0,10074,0,123,0,
5.6000,260.7,-13.5,227.1,320.1,82.8,66.3,-383.1,0,0,10080,0,124,0,
5.6033,258.9,-12.0,228.9,322.2,85.5,66.3,-385.2,0,0,10086,0,125,0,
5.6067,258.9,-16.2,225.3,321.9,86.4,64.2,-378.9,0,0,10092,0,126,0,
5.6100,259.8,-20.7,221.4,324.3,85.2,66.0,-384.3,0,0,10098,0,127,0,
5.6133,259.8,-12.9,225.9,325.5,87.9,64.5,-384.9,0,0,10104,0,128,0,
5.6167,258.0,-8.7,228.9,322.8,84.9,63.0,-385.5,0,0,10110,0,129,0,
5.6200,258.6,-17.4,222.0,318.9,84.0,62.1,-390.6,0,0,10116,0,130,0,
5.6233,262.2,-16.5,226.2,327.0,85.5,62.7,-388.8,0,0,10122,0,131,0,
5.6267,261.3,-17.4,226.2,326.4,89.1,65.7,-382.8,0,0,10128,0,132,0,
5.6300,260.4,-12.3,224.1,325.8,88.2,65.4,-382.5,0,0,10134,0,133,0,
5.6333,258.3,-15.3,224.1,325.8,84.9,63.0,-385.5,0,0,10140,0,134,0,
5.6367,262.5,-15.3,228.3,327.0,84.0,62.4,-385.2,0,0,10146,0,135,0,
5.6400,259.2,-12.3,216.3,324.3,86.7,62.4,-384.9,0,0,10152,0,136,0,
5.6433,260.1,-10.2,227.4,323.4,90.9,68.4,-385.5,0,0,10158,0,137,0,
5.6467,258.9,-15.0,220.8,321.3,87.0,67.5,-390.0,0,0,10164,0,138,0,
5.6500,263.4,-10.5,222.9,323.7,91.8,68.4,-384.3,0,0,10170,0,139,0,
5.6533,253.2,-17.7,219.9,320.7,88.2,63.6,-397.5,0,0,10176,0,140,0,
5.6567,264.6,-10.5,228.6,328.2,87.9,57.9,-389.7,0,0,10182,0,141,0,
5.6600,252.9,-18.9,223.2,317.4,101.4,40.2,-403.5,0,0,10188,0,142,0,
5.6633,257.4,-10.8,224.1,320.7,84.0,57.9,-396.3,0,0,10194,0,143,0,
5.6667,264.3,-1.5,223.5,327.9,70.5,70.5,-392.7,0,0,10200,0,144,0,
5.6700,254.1,-8.7,221.7,324.9,81.6,58.8,-396.0,0,0,10206,0,145,0,
5.6733,262.5,-3.3,223.2,323.7,82.5,65.1,-388.2,0,0,10212,0,146,0,
5.6767,265.8,-1.2,225.3,321.0,82.8,62.4,-381.0,0,0,10218,0,147,0,
5.6800,266.7,-12.3,223.5,317.4,81.0,62.1,-383.4,0,0,10224,0,148,0,
5.6833,254.1,-30.3,220.5,318.6,78.6,64.2,-396.3,0,0,10230,0,149,0,
5.6867,254.4,-20.7,218.7,321.9,86.7,71.4,-391.8,0,0,10236,0,150,0,
5.6900,257.7,-14.1,216.6,321.0,78.9,57.9,-400.5,0,0,10242,0,151,0,
5.6933,271.2,0.0,226.8,326.7,84.9,66.0,-384.9,0,0,10248,0,152,0,
5.6967,266.4,-5.7,224.1,320.7,82.8,61.2,-390.6,0,0,10254,0,153,0,
5.7000,266.4,-9.9,224.4,324.6,85.5,64.8,-392.1,0,0,10260,0,154,0,
5.7033,268.8,-12.6,228.6,322.2,85.2,65.4,-390.6,0,0,10266,0,155,0,
5.7067,264.9,-7.8,227.7,322.8,82.5,60.6,-390.3,0,0,10272,0,156,0,
5.7100,263.4,-7.5,227.4,324.3,84.9,58.5,-401.7,0,0,10278,0,157,0,
5.7133,262.8,-15.0,225.9,325.2,86.4,60.6,-397.5,0,0,10284,0,158,0,
5.7167,276.3,-2.1,228.6,321.9,85.5,67.2,-383.7,0,0,10290,0,159,0,
5.7200,269.1,-6.0,231.3,324.6,86.1,65.7,-391.5,0,0,10296,0,160,0,
5.7233,261.0,-12.6,228.9,322.5,81.6,63.9,-397.8,0,0,10302,0,161,0,
5.7267,265.2,-4.8,231.6,324.3,84.3,64.5,-396.9,0,0,10308,0,162,0,
5.7300,263.7,-4.8,229.5,323.7,87.9,64.8,-398.4,0,0,10314,0,163,0,
5.7333,264.9,-7.5,230.7,321.0,81.9,62.7,-394.5,0,0,10320,0,164,0,
5.7367,250.2,-25.5,219.6,312.6,102.0,45.6,-408.9,0,0,10326,0,165,0,
5.7400,260.1,-9.9,232.5,322.2,87.0,60.3,-398.7,0,0,10332,0,166,0,
5.7433,272.1,6.9,241.5,326.1,70.8,74.1,-384.9,0,0,10338,0,167,0,
5.7467,261.6,2.1,230.7,321.0,84.3,69.0,-392.7,0,0,10344,0,168,0,
5.7500,267.9,-3.0,234.9,315.6,78.6,65.4,-399.6,0,0,10350,0,169,0,
5.7533,272.1,-5.4,236.7,319.8,86.4,65.1,-400.8,0,0,10356,0,170,0,
5.7567,268.8,-4.5,234.0,319.8,87.6,65.4,-401.4,0,0,10362,0,171,0,
5.7600,262.8,-12.9,225.3,318.6,81.6,63.0,-407.4,0,0,10368,0,172,0,
5.7633,263.7,-6.6,231.9,318.3,86.1,69.3,-404.1,0,0,10374,0,173,0,
5.7667,266.4,-5.7,228.6,318.3,80.4,67.2,-405.3,0,0,10380,0,174,0,
5.7700,266.7,-6.0,230.4,322.8,86.1,68.4,-406.5,0,0,10386,0,175,0,
5.7733,267.9,-6.0,227.4,319.5,82.5,63.6,-412.2,0,0,10392,0,176,0,
5.7767,273.3,-0.3,235.8,324.0,87.9,68.7,-406.5,0,0,10398,0,177,0,
5.7800,275.4,3.9,233.4,323.7,87.9,69.3,-402.6,0,0,10404,0,178,0,
5.7833,277.5,5.1,231.6,321.6,92.1,72.3,-397.5,0,0,10410,0,179,0,
5.7867,277.5,0.6,231.9,319.5,83.4,69.6,-402.3,0,0,10416,0,180,0,
5.7900,270.6,-3.3,231.3,322.5,84.9,67.8,-406.2,0,0,10422,0,181,0,
5.7933,269.4,-0.9,234.3,320.4,85.5,78.6,-403.5,0,0,10428,0,182,0,
5.7967,268.5,-11.4,230.1,317.7,84.9,64.8,-411.6,0,0,10434,0,183,0,
5.8000,274.8,1.5,227.4,315.9,86.7,65.1,-410.4,0,0,10440,0,184,0,
5.8033,276.0,-1.5,226.2,313.5,106.2,63.0,-410.4,0,0,10446,0,185,0,
5.8067,287.7,7.8,238.5,320.4,70.5,91.8,-394.5,0,0,10452,0,186,0,
5.8100,285.6,5.7,238.8,320.4,79.5,73.8,-403.2,0,0,10458,0,187,0,
5.8133,284.4,11.7,240.9,325.5,81.3,72.0,-396.3,0,0,10464,0,188,0,
5.8167,276.6,2.7,235.2,320.4,83.4,68.1,-412.8,0,0,10470,0,189,0,
5.8200,281.4,9.0,236.1,323.4,84.6,73.5,-406.5,0,0,10476,0,190,0,
5.8233,279.3,9.9,237.9,323.7,86.7,73.2,-403.2,0,0,10482,0,191,0,
5.8267,273.3,5.7,231.9,319.2,77.1,66.9,-410.4,0,0,10488,0,192,0,
5.8300,273.0,5.1,231.3,320.1,80.4,73.8,-405.3,0,0,10494,0,193,0,
5.8333,272.4,7.5,232.8,324.0,79.2,75.9,-402.6,0,0,10500,0,194,0,
5.8367,279.0,9.3,227.1,322.5,81.3,67.5,-406.8,0,0,10506,0,195,0,
5.8400,272.4,4.8,234.6,321.3,79.2,62.1,-404.1,0,0,10512,0,196,0,
5.8433,274.8,1.2,229.8,326.7,81.6,64.5,-408.6,0,0,10518,0,197,0,
5.8467,270.0,-2.7,222.9,324.0,80.4,63.6,-412.5,0,0,10524,0,198,0,
5.8500,269.7,5.1,225.6,321.0,81.6,71.7,-399.9,0,0,10530,0,199,0,
5.8533,269.4,-3.9,227.1,319.8,81.0,60.0,-417.6,0,0,10536,0,200,0,
5.8567,272.4,9.0,236.1,320.4,82.2,67.5,-413.7,0,0,10542,0,201,0,
5.8600,275.1,2.7,234.0,321.0,82.5,69.3,-412.2,0,0,10548,0,202,0,
5.8633,262.2,-3.0,230.1,316.2,87.3,60.6,-415.8,0,0,10554,0,203,0,
5.8667,261.0,-3.9,220.8,313.8,99.6,52.5,-414.9,0,0,10560,0,204,0,
5.8700,276.6,11.1,235.5,321.3,67.8,79.5,-398.4,0,0,10566,0,205,0,
5.8733,264.9,3.9,226.2,315.6,76.5,64.5,-411.6,0,0,10572,0,206,0,
5.8767,265.2,3.3,225.9,318.6,78.6,70.5,-411.3,0,0,10578,0,207,0,
5.8800,266.4,0.6,225.6,317.4,77.7,64.8,-408.6,0,0,10584,0,208,0,
5.8833,261.3,0.6,231.9,319.5,76.5,64.2,-416.4,0,0,10590,0,209,0,
5.8867,260.7,-7.8,228.6,315.6,75.3,63.6,-418.5,0,0,10596,0,210,0,
5.8900,267.6,-1.8,222.3,316.2,79.5,68.7,-413.7,0,0,10602,0,211,0,
5.8933,258.6,-7.2,222.6,313.5,79.8,67.5,-410.1,0,0,10608,0,212,0,
5.8967,259.5,-6.9,225.3,319.5,76.2,63.9,-410.7,0,0,10614,0,213,0,
5.9000,259.8,-6.3,225.6,317.7,78.0,65.1,-408.3,0,0,10620,0,214,0,
5.9033,265.5,-3.3,229.2,319.5,84.3,70.5,-405.6,0,0,10626,0,215,0,
5.9067,257.1,-11.1,224.1,313.2,75.9,64.2,-414.0,0,0,10632,0,216,0,
5.9100,258.6,-0.3,224.7,313.5,77.7,69.0,-405.9,0,0,10638,0,217,0,
5.9133,263.4,6.6,229.5,319.2,81.3,70.5,-397.8,0,0,10644,0,218,0,
5.9167,261.6,-3.3,232.2,317.1,79.8,66.6,-396.9,0,0,10650,0,219,0,
5.9200,262.8,-3.0,232.2,320.4,78.0,63.3,-401.1,0,0,10656,0,220,0,
5.9233,263.7,4.8,237.0,319.2,78.6,73.8,-386.1,0,0,10662,0,221,0,
5.9267,268.8,11.4,236.7,316.8,81.3,75.3,-387.0,0,0,10668,0,222,0,
5.9300,261.3,7.5,235.2,321.3,81.0,63.0,-397.5,0,0,10674,0,223,0,
5.9333,251.7,-1.5,230.1,312.6,97.8,53.7,-406.5,0,0,10680,0,224,0,
5.9367,267.6,15.6,242.7,320.7,66.3,85.2,-387.3,0,0,10686,0,225,0,
5.9400,266.7,15.0,236.1,320.4,76.5,75.9,-385.2,0,0,10692,0,226,0,
5.9433,269.4,7.2,235.8,319.8,76.2,69.6,-378.6,0,0,10698,0,227,0,
5.9467,258.6,-1.8,230.4,315.9,77.7,72.9,-381.3,0,0,10704,0,228,0,
5.9500,256.5,-1.2,225.6,311.4,71.1,69.3,-382.8,0,0,10710,0,229,0,
5.9533,256.8,-0.3,229.5,313.2,74.4,64.5,-382.8,0,0,10716,0,230,0,
5.9567,256.2,-3.0,235.5,315.9,73.2,58.5,-384.6,0,0,10722,0,231,0,
5.9600,255.6,-9.6,230.4,313.2,75.3,58.5,-384.3,0,0,10728,0,232,0,
5.9633,255.6,-9.9,219.9,309.6,74.4,48.6,-387.6,0,0,10734,0,233,0,
5.9667,248.4,-6.6,224.7,309.9,71.7,56.4,-383.4,0,0,10740,0,234,0,
5.9700,259.8,-6.9,223.8,312.0,74.4,57.6,-384.9,0,0,10746,0,235,0,
5.9733,249.3,-15.3,223.8,309.3,77.4,44.1,-396.6,0,0,10752,0,236,0,
5.9767,241.8,-23.1,219.9,304.8,85.8,34.2,-396.6,0,0,10758,0,237,0,
5.9800,267.3,-1.8,235.8,310.8,56.4,66.3,-370.5,0,0,10764,0,238,0,
5.9833,259.8,-7.2,236.7,314.4,76.2,56.7,-376.2,0,0,10770,0,239,0,
5.9867,262.2,-8.1,234.3,313.8,65.1,57.0,-381.0,0,0,10776,0,240,0,
5.9900,256.5,-10.8,235.2,314.4,72.3,57.9,-378.0,0,0,10782,0,241,0,
5.9933,259.5,-4.8,237.6,315.3,71.4,63.9,-370.8,0,0,10788,0,242,0,
5.9967,256.2,-1.2,231.9,311.7,71.4,57.3,-372.6,0,0,10794,0,243,0,
6.0000,257.4,3.3,234.0,313.2,74.7,62.1,-369.6,0,0,10800,0,244,0,
6.0033,257.4,-4.2,235.2,310.8,75.9,53.1,-383.7,0,0,10806,0,245,0,
6.0067,249.3,-6.6,232.5,312.6,72.3,53.7,-386.7,0,0,10812,0,246,0,
6.0100,251.7,-5.4,235.5,311.7,72.0,55.2,-379.8,0,0,10818,0,247,0,
6.0133,255.3,-4.8,232.5,313.2,74.7,58.2,-374.7,0,0,10824,0,248,0,
6.0167,259.5,-9.9,227.4,313.2,75.3,59.7,-372.6,0,0,10830,0,249,0,
6.0200,250.8,-13.8,228.3,309.6,74.7,59.1,-376.2,0,0,10836,0,250,0,
