# Mains_Frequency_(Hz) =,60,,,,,,,,,,
# Sample_Frequency_(Hz) =,300,,,,,,,,,,
# Sensor_Data_Units =,uV,,,,,,,,,,
# Headset_Name =,DSI-7 SN:23,,,,,,,,,,
# Data_Logger =,DSI-Streamer-v.1.08.119,,,,,,,,,,
# Date =,2/21/2024,,,,,,,,,,
# Time =, 19:03:55.645 ,,,,,,,,,,
# Patient_ID =,X M 01-JAN-2000 X,,,,,,,,,,
# Record_ID =,Startdate 21-FEB-2024 EEG_XX X X,,,,,,,,,,
# EEG Filter Settings =,Non-Filtered,,,,,,,,,,
# Comments =,,,,,,,,,,,
# Reference location:,Pz,,,,,,,,,,
Time,LE,F4,C4,P4,P3,C3,F3,Pz,Trigger,Time_Offset,ADC_Status,ADC_Sequence,Event,Comments
0.0033,39.9,-203.7,-220.5,-214.5,0.0,-87.3,-438.3,0,0,6,0,222,0,
0.0067,34.8,-212.7,-222.9,-215.4,-1.2,-92.4,-448.8,0,0,12,0,223,0,
0.0100,27.6,-210.9,-226.5,-215.7,-4.2,-95.4,-454.5,0,0,18,0,224,0,
0.0133,28.2,-219.0,-231.0,-219.9,-6.6,-101.7,-466.2,0,0,24,0,225,0,
0.0167,25.2,-216.3,-225.0,-219.9,-5.4,-97.8,-464.4,0,0,30,0,226,0,
0.0200,25.2,-223.5,-231.3,-221.4,-6.9,-98.4,-468.9,0,0,36,0,227,0,
0.0233,22.2,-217.5,-234.0,-221.7,-2.4,-95.4,-467.1,0,0,42,0,228,0,
0.0267,17.1,-223.5,-236.4,-219.6,-4.5,-105.0,-474.0,0,0,48,0,229,0,
0.0300,23.4,-219.3,-230.4,-215.1,-1.5,-100.5,-461.7,0,0,54,0,230,0,
0.0333,30.9,-220.2,-231.3,-218.1,-3.9,-99.9,-457.8,0,0,60,0,231,0,
0.0367,28.2,-222.9,-233.4,-220.5,-2.1,-102.6,-455.7,0,0,66,0,232,0,
0.0400,28.2,-219.9,-232.5,-220.2,-1.5,-92.4,-454.8,0,0,72,0,233,0,
0.0433,33.6,-233.4,-235.8,-220.2,-3.0,-94.2,-464.4,0,0,78,0,234,0,
0.0467,26.1,-235.2,-238.8,-220.5,-2.1,-95.1,-468.3,0,0,84,0,235,0,
0.0500,40.2,-234.0,-229.5,-221.7,-2.4,-96.3,-467.4,0,0,90,0,236,0,
0.0533,37.2,-237.9,-232.5,-224.4,-5.1,-99.0,-471.6,0,0,96,0,237,0,
0.0567,24.6,-225.3,-235.5,-219.6,-3.9,-100.5,-469.5,0,0,102,0,238,0,
0.0600,28.2,-217.8,-235.2,-220.2,-4.8,-94.2,-465.6,0,0,108,0,239,0,
0.0633,26.1,-225.6,-237.0,-219.9,-0.9,-93.0,-462.6,0,0,114,0,240,0,
0.0667,19.5,-235.5,-242.4,-225.3,-3.6,-96.9,-465.0,0,0,120,0,241,0,
0.0700,24.6,-233.1,-245.7,-227.4,-3.6,-96.3,-465.0,0,0,126,0,242,0,
0.0733,19.8,-222.0,-243.9,-226.2,-6.9,-93.9,-465.9,0,0,132,0,243,0,
0.0767,22.2,-226.5,-241.2,-228.6,-1.5,-88.5,-470.4,0,0,138,0,244,0,
0.0800,26.1,-234.6,-236.4,-228.9,-2.7,-95.1,-465.3,0,0,144,0,245,0,
0.0833,18.0,-236.1,-240.0,-232.2,-6.9,-100.2,-460.5,0,0,150,0,246,0,
0.0867,18.0,-234.9,-230.4,-222.9,-0.3,-95.7,-455.7,0,0,156,0,247,0,
0.0900,26.1,-225.9,-234.3,-222.0,0.6,-91.5,-455.1,0,0,162,0,248,0,
0.0933,32.7,-216.0,-229.2,-220.2,5.1,-87.0,-444.6,0,0,168,0,249,0,
0.0967,23.4,-216.9,-222.0,-217.5,5.1,-88.5,-446.7,0,0,174,0,250,0,
0.1000,28.8,-224.7,-227.1,-217.5,5.4,-86.4,-446.7,0,0,180,0,251,0,
0.1033,26.4,-225.9,-228.0,-222.0,5.7,-84.9,-449.4,0,0,186,0,252,0,
0.1067,22.5,-234.9,-234.3,-217.5,3.3,-89.7,-468.6,0,0,192,0,253,0,
0.1100,21.3,-223.2,-226.5,-216.6,3.9,-94.2,-470.4,0,0,198,0,254,0,
0.1133,29.1,-202.5,-218.1,-212.4,5.7,-90.6,-450.6,0,0,204,0,255,0,
0.1167,32.4,-195.0,-215.1,-213.0,5.1,-88.2,-441.9,0,0,210,0,0,0,
0.1200,28.8,-192.0,-213.3,-213.3,3.9,-88.8,-443.7,0,0,216,0,1,0,
0.1233,25.2,-183.0,-210.0,-211.8,4.8,-84.0,-440.7,0,0,222,0,2,0,
0.1267,18.0,-179.7,-212.7,-214.8,-1.2,-89.4,-449.4,0,0,228,0,3,0,
0.1300,18.0,-170.1,-219.3,-213.0,0.0,-88.8,-435.0,0,0,234,0,4,0,
0.1333,8.4,-160.5,-215.4,-211.8,-3.9,-96.3,-436.8,0,0,240,0,5,0,
0.1367,8.1,-143.1,-203.4,-207.0,-2.1,-95.4,-432.3,0,0,246,0,6,0,
0.1400,6.9,-141.6,-201.9,-203.1,-2.1,-93.9,-427.2,0,0,252,0,7,0,
0.1433,2.7,-126.9,-199.2,-208.2,-4.2,-95.7,-417.0,0,0,258,0,8,0,
0.1467,4.2,-108.3,-195.6,-209.4,-4.8,-93.9,-407.7,0,0,264,0,9,0,
0.1500,-3.9,-105.6,-195.3,-206.4,-4.5,-92.4,-405.6,0,0,270,0,10,0,
0.1533,-8.7,-100.2,-191.1,-207.0,-4.5,-96.6,-415.8,0,0,276,0,11,0,
0.1567,0.0,-85.5,-184.2,-203.4,-3.9,-95.7,-407.7,0,0,282,0,12,0,
0.1600,-2.7,-78.6,-180.3,-201.9,-5.7,-99.0,-397.8,0,0,288,0,13,0,
0.1633,-7.8,-69.9,-178.2,-202.5,-6.0,-96.0,-393.3,0,0,294,0,14,0,
0.1667,-17.7,-76.5,-185.7,-203.1,-6.9,-94.5,-401.1,0,0,300,0,15,0,
0.1700,-22.8,-81.9,-187.2,-201.3,-3.6,-93.9,-410.4,0,0,306,0,16,0,
0.1733,-4.8,-60.0,-180.3,-202.2,-6.9,-95.7,-385.5,0,0,312,0,17,0,
0.1767,-24.0,-60.3,-182.7,-204.6,-11.4,-101.4,-384.3,0,0,318,0,18,0,
0.1800,-28.8,-64.8,-179.4,-201.6,-7.8,-100.5,-387.0,0,0,324,0,19,0,
0.1833,-23.4,-66.6,-182.1,-201.3,-9.9,-101.1,-395.1,0,0,330,0,20,0,
0.1867,-27.9,-73.8,-182.1,-204.6,-11.7,-105.6,-399.6,0,0,336,0,21,0,
0.1900,-22.5,-69.0,-181.5,-201.9,-8.4,-102.6,-400.5,0,0,342,0,22,0,
0.1933,-26.4,-55.5,-189.0,-207.0,-10.2,-105.6,-404.4,0,0,348,0,23,0,
0.1967,-23.1,-66.3,-191.1,-205.8,-9.3,-100.8,-402.9,0,0,354,0,24,0,
0.2000,-17.7,-73.5,-187.5,-201.0,-6.3,-102.0,-402.9,0,0,360,0,25,0,
0.2033,-30.9,-90.3,-192.9,-205.2,-7.5,-104.7,-411.3,0,0,366,0,26,0,
0.2067,-20.1,-87.0,-189.9,-203.1,-7.5,-104.1,-413.4,0,0,372,0,27,0,
0.2100,-30.6,-88.2,-194.1,-204.0,-8.4,-108.6,-415.8,0,0,378,0,28,0,
0.2133,-19.8,-80.4,-187.8,-204.9,-7.2,-103.2,-408.0,0,0,384,0,29,0,
0.2167,-22.8,-88.8,-195.0,-206.7,-9.6,-103.5,-419.7,0,0,390,0,30,0,
0.2200,-26.1,-96.0,-199.5,-209.1,-7.2,-109.8,-428.7,0,0,396,0,31,0,
0.2233,-26.4,-94.2,-199.5,-211.2,-8.1,-108.9,-433.2,0,0,402,0,32,0,
0.2267,-18.6,-88.2,-199.2,-210.3,-7.5,-105.9,-430.5,0,0,408,0,33,0,
0.2300,-27.9,-104.1,-202.2,-212.4,-6.3,-107.1,-432.9,0,0,414,0,34,0,
0.2333,-17.1,-105.6,-196.8,-209.1,-6.9,-108.3,-435.3,0,0,420,0,35,0,
0.2367,-20.1,-121.8,-207.3,-215.4,-6.3,-102.3,-432.3,0,0,426,0,36,0,
0.2400,-16.2,-129.0,-211.2,-214.5,-4.5,-98.1,-432.0,0,0,432,0,37,0,
0.2433,-15.0,-132.3,-208.2,-215.4,-1.5,-93.3,-435.3,0,0,438,0,38,0,
0.2467,-15.6,-120.9,-199.8,-212.4,-5.7,-102.3,-441.9,0,0,444,0,39,0,
0.2500,-7.8,-116.4,-199.5,-208.5,-5.4,-101.1,-445.2,0,0,450,0,40,0,
0.2533,-23.7,-120.0,-201.0,-210.0,-8.7,-104.7,-456.9,0,0,456,0,41,0,
0.2567,-17.4,-127.5,-204.3,-210.3,-9.6,-105.9,-457.5,0,0,462,0,42,0,
0.2600,-11.1,-129.6,-198.0,-208.5,-9.3,-104.1,-454.2,0,0,468,0,43,0,
0.2633,-25.2,-130.5,-197.7,-206.4,-9.9,-103.8,-457.5,0,0,474,0,44,0,
0.2667,-21.9,-140.4,-209.1,-211.2,-8.7,-108.3,-462.6,0,0,480,0,45,0,
0.2700,-6.9,-129.6,-201.3,-206.1,-6.3,-105.3,-468.3,0,0,486,0,46,0,
0.2733,-8.4,-125.1,-199.8,-206.1,-5.7,-106.8,-475.5,0,0,492,0,47,0,
0.2767,-8.7,-134.7,-198.0,-206.7,-7.2,-108.6,-485.4,0,0,498,0,48,0,
0.2800,-6.6,-147.9,-205.8,-210.3,-4.5,-108.3,-483.9,0,0,504,0,49,0,
0.2833,-11.4,-144.0,-204.0,-206.7,-7.2,-107.7,-484.8,0,0,510,0,50,0,
0.2867,-12.9,-148.2,-205.5,-208.2,-6.6,-106.2,-490.2,0,0,516,0,51,0,
0.2900,-8.7,-148.5,-206.7,-207.9,-6.0,-110.4,-500.1,0,0,522,0,52,0,
0.2933,-4.2,-139.8,-206.7,-208.5,-3.3,-108.6,-482.1,0,0,528,0,53,0,
0.2967,-18.0,-145.8,-208.8,-209.7,-7.8,-111.6,-482.1,0,0,534,0,54,0,
0.3000,-9.9,-148.8,-206.7,-205.2,-5.4,-109.5,-486.6,0,0,540,0,55,0,
0.3033,-10.2,-140.4,-204.6,-203.7,-4.8,-104.4,-486.9,0,0,546,0,56,0,
0.3067,-11.4,-146.7,-205.5,-213.0,-5.1,-110.1,-489.6,0,0,552,0,57,0,
0.3100,4.5,-156.3,-204.9,-210.0,-2.7,-107.4,-493.2,0,0,558,0,58,0,
0.3133,-9.9,-159.3,-201.6,-214.5,-7.2,-107.7,-505.2,0,0,564,0,59,0,
0.3167,1.5,-148.5,-209.1,-215.4,-4.8,-105.0,-500.7,0,0,570,0,60,0,
0.3200,-12.0,-142.5,-204.0,-210.0,-10.8,-108.3,-503.1,0,0,576,0,61,0,
0.3233,-15.9,-144.3,-205.8,-210.0,-8.1,-111.6,-509.7,0,0,582,0,62,0,
0.3267,-14.7,-154.5,-210.0,-213.6,-12.3,-117.6,-514.2,0,0,588,0,63,0,
0.3300,-6.9,-149.7,-203.7,-207.6,-9.9,-114.3,-505.2,0,0,594,0,64,0,
0.3333,-5.4,-152.1,-201.6,-206.1,-9.6,-117.3,-513.0,0,0,600,0,65,0,
0.3367,-8.7,-151.8,-207.0,-210.0,-11.4,-116.7,-513.9,0,0,606,0,66,0,
0.3400,2.7,-147.3,-205.5,-208.8,-11.7,-114.0,-511.2,0,0,612,0,67,0,
0.3433,-4.8,-152.4,-212.1,-212.1,-14.4,-117.3,-516.0,0,0,618,0,68,0,
0.3467,-6.0,-150.0,-203.1,-207.9,-9.0,-113.7,-515.1,0,0,624,0,69,0,
0.3500,-16.5,-156.6,-210.0,-210.3,-10.8,-117.0,-520.8,0,0,630,0,70,0,
0.3533,6.3,-157.5,-205.8,-207.0,-7.8,-112.8,-520.5,0,0,636,0,71,0,
0.3567,-3.3,-151.5,-203.1,-207.9,-8.7,-116.1,-516.9,0,0,642,0,72,0,
0.3600,-2.7,-159.9,-209.7,-210.3,-9.9,-115.2,-515.7,0,0,648,0,73,0,
0.3633,-8.4,-161.1,-204.0,-210.9,-8.1,-114.6,-518.1,0,0,654,0,74,0,
0.3667,-1.5,-166.8,-210.6,-213.9,-12.0,-122.4,-517.5,0,0,660,0,75,0,
0.3700,3.6,-160.8,-206.7,-212.7,-7.5,-118.2,-518.7,0,0,666,0,76,0,
0.3733,-5.1,-171.3,-203.1,-205.5,-10.5,-119.7,-527.1,0,0,672,0,77,0,
0.3767,-0.3,-170.4,-206.1,-207.9,-9.0,-118.5,-527.1,0,0,678,0,78,0,
0.3800,-1.2,-176.4,-205.5,-209.1,-11.1,-123.9,-531.3,0,0,684,0,79,0,
0.3833,-9.0,-174.3,-211.5,-208.2,-11.4,-123.9,-529.2,0,0,690,0,80,0,
0.3867,-3.6,-174.9,-211.2,-209.7,-8.7,-125.1,-523.5,0,0,696,0,81,0,
0.3900,1.8,-178.8,-209.7,-208.2,-10.5,-119.1,-523.2,0,0,702,0,82,0,
0.3933,-0.9,-175.8,-207.3,-206.4,-7.2,-118.2,-523.5,0,0,708,0,83,0,
0.3967,2.1,-173.1,-204.9,-210.3,-7.8,-119.1,-521.7,0,0,714,0,84,0,
0.4000,3.0,-182.1,-209.7,-213.6,-10.2,-126.0,-527.1,0,0,720,0,85,0,
0.4033,-6.0,-185.1,-206.7,-211.5,-12.3,-129.3,-526.8,0,0,726,0,86,0,
0.4067,-3.9,-178.2,-203.4,-208.2,-13.5,-129.3,-521.4,0,0,732,0,87,0,
0.4100,-6.3,-176.1,-204.0,-211.2,-15.0,-132.6,-521.4,0,0,738,0,88,0,
0.4133,-5.1,-178.5,-204.9,-210.9,-14.1,-134.4,-525.3,0,0,744,0,89,0,
0.4167,-5.1,-179.1,-203.1,-211.5,-13.8,-130.8,-527.1,0,0,750,0,90,0,
0.4200,-4.5,-183.0,-204.9,-210.6,-12.3,-130.5,-525.6,0,0,756,0,91,0,
0.4233,1.8,-173.7,-198.3,-207.6,-14.1,-132.0,-521.1,0,0,762,0,92,0,
0.4267,-9.6,-176.4,-199.2,-206.7,-9.6,-131.4,-518.7,0,0,768,0,93,0,
0.4300,0.3,-174.9,-195.6,-206.1,-8.1,-130.5,-509.7,0,0,774,0,94,0,
0.4333,-0.3,-180.0,-202.5,-209.7,-6.3,-125.1,-514.2,0,0,780,0,95,0,
0.4367,-1.5,-174.3,-204.6,-208.8,-10.8,-129.3,-513.6,0,0,786,0,96,0,
0.4400,0.9,-177.9,-207.6,-209.1,-10.5,-132.9,-513.9,0,0,792,0,97,0,
0.4433,3.0,-172.8,-204.3,-205.8,-8.4,-132.9,-505.5,0,0,798,0,98,0,
0.4467,-1.8,-176.7,-202.2,-211.5,-11.7,-131.7,-501.6,0,0,804,0,99,0,
0.4500,3.0,-184.2,-212.7,-213.3,-12.9,-132.0,-502.8,0,0,810,0,100,0,
0.4533,5.7,-172.5,-202.2,-208.8,-4.2,-124.2,-502.5,0,0,816,0,101,0,
0.4567,6.0,-176.1,-204.9,-210.3,-4.5,-125.1,-502.2,0,0,822,0,102,0,
0.4600,1.5,-176.7,-204.6,-210.3,-4.8,-133.2,-496.8,0,0,828,0,103,0,
0.4633,-3.9,-179.4,-206.4,-208.2,-3.0,-129.0,-493.2,0,0,834,0,104,0,
0.4667,-7.2,-181.8,-205.8,-211.5,-5.7,-137.7,-497.1,0,0,840,0,105,0,
0.4700,-1.5,-184.5,-207.9,-209.4,-8.7,-130.2,-501.9,0,0,846,0,106,0,
0.4733,0.9,-176.1,-198.0,-207.3,-2.4,-122.1,-491.4,0,0,852,0,107,0,
0.4767,-0.3,-174.6,-206.7,-211.8,-6.9,-128.7,-501.9,0,0,858,0,108,0,
0.4800,2.7,-162.6,-202.5,-209.7,-5.1,-124.2,-496.2,0,0,864,0,109,0,
0.4833,-9.0,-176.4,-203.1,-213.6,-13.5,-126.3,-500.4,0,0,870,0,110,0,
0.4867,-3.6,-169.5,-198.9,-214.5,-6.9,-123.0,-493.8,0,0,876,0,111,0,
0.4900,4.8,-166.2,-200.1,-213.9,-9.6,-126.6,-494.7,0,0,882,0,112,0,
0.4933,-6.9,-168.0,-205.2,-217.5,-9.6,-132.0,-499.8,0,0,888,0,113,0,
0.4967,-9.6,-169.2,-202.5,-215.4,-9.3,-130.8,-506.4,0,0,894,0,114,0,
0.5000,-8.1,-164.1,-200.4,-215.1,-9.3,-127.5,-504.0,0,0,900,0,115,0,
0.5033,-11.7,-176.7,-203.1,-213.6,-7.5,-125.1,-497.4,0,0,906,0,116,0,
0.5067,4.5,-172.5,-202.2,-211.5,-6.9,-123.6,-492.6,0,0,912,0,117,0,
0.5100,-2.1,-175.2,-204.6,-210.3,-7.2,-123.6,-500.7,0,0,918,0,118,0,
0.5133,-4.2,-177.9,-207.6,-213.3,-6.6,-123.0,-497.7,0,0,924,0,119,0,
0.5167,2.7,-169.2,-205.2,-213.9,-1.2,-118.8,-487.2,0,0,930,0,120,0,
0.5200,-0.9,-173.7,-207.6,-210.9,-4.2,-127.2,-495.0,0,0,936,0,121,0,
0.5233,-3.6,-171.3,-200.7,-207.9,-1.5,-125.1,-495.9,0,0,942,0,122,0,
0.5267,-1.5,-162.9,-198.3,-209.4,-3.3,-122.7,-493.8,0,0,948,0,123,0,
0.5300,-4.8,-168.0,-200.4,-209.7,-3.3,-121.5,-497.4,0,0,954,0,124,0,
0.5333,-4.2,-163.5,-203.1,-211.8,-7.8,-126.3,-498.3,0,0,960,0,125,0,
0.5367,-4.8,-159.0,-197.1,-206.1,-5.7,-124.5,-496.8,0,0,966,0,126,0,
0.5400,-4.5,-169.5,-204.0,-212.1,-9.0,-130.2,-502.2,0,0,972,0,127,0,
0.5433,-7.5,-176.1,-198.9,-211.2,-9.3,-134.1,-502.5,0,0,978,0,128,0,
0.5467,-9.9,-168.9,-195.6,-210.3,-10.2,-133.2,-497.1,0,0,984,0,129,0,
0.5500,-6.6,-176.1,-193.8,-210.9,-10.8,-128.4,-495.3,0,0,990,0,130,0,
0.5533,-10.2,-165.3,-195.3,-207.9,-8.7,-128.7,-495.0,0,0,996,0,131,0,
0.5567,-8.4,-162.3,-189.6,-207.3,-5.1,-122.7,-495.3,0,0,1002,0,132,0,
0.5600,-6.0,-156.3,-192.0,-208.8,-0.6,-118.5,-483.6,0,0,1008,0,133,0,
0.5633,-9.0,-157.2,-196.8,-212.1,-0.3,-118.5,-481.8,0,0,1014,0,134,0,
0.5667,0.0,-153.0,-193.5,-210.6,0.6,-120.6,-486.9,0,0,1020,0,135,0,
0.5700,-3.6,-157.5,-191.7,-204.3,0.9,-120.0,-489.3,0,0,1026,0,136,0,
0.5733,-1.8,-161.4,-195.9,-207.6,0.6,-118.5,-490.8,0,0,1032,0,137,0,
0.5767,-6.0,-167.7,-196.2,-209.7,-7.2,-123.3,-499.5,0,0,1038,0,138,0,
0.5800,-6.3,-169.2,-192.3,-205.2,-5.1,-120.0,-501.3,0,0,1044,0,139,0,
0.5833,-5.1,-168.3,-194.4,-206.4,-5.7,-123.6,-502.2,0,0,1050,0,140,0,
0.5867,2.4,-158.4,-194.4,-206.4,-0.6,-119.1,-498.9,0,0,1056,0,141,0,
0.5900,3.3,-157.5,-190.8,-206.7,-1.8,-118.2,-491.4,0,0,1062,0,142,0,
0.5933,-2.7,-156.6,-186.3,-204.3,-1.8,-119.4,-486.0,0,0,1068,0,143,0,
0.5967,3.6,-157.5,-193.8,-208.5,1.2,-120.9,-487.5,0,0,1074,0,144,0,
0.6000,-0.6,-156.6,-196.5,-204.9,-1.8,-118.2,-492.3,0,0,1080,0,145,0,
0.6033,-2.1,-152.7,-189.6,-204.0,3.0,-114.3,-488.4,0,0,1086,0,146,0,
0.6067,-10.5,-165.6,-191.1,-208.8,-3.0,-120.9,-497.7,0,0,1092,0,147,0,
0.6100,-4.2,-150.9,-192.6,-209.7,-2.4,-123.3,-494.1,0,0,1098,0,148,0,
0.6133,-5.4,-146.4,-189.9,-204.9,-0.9,-124.2,-491.4,0,0,1104,0,149,0,
0.6167,-6.3,-156.6,-192.9,-210.9,-4.5,-121.5,-498.0,0,0,1110,0,150,0,
0.6200,-0.3,-152.1,-185.7,-203.7,4.8,-113.7,-488.4,0,0,1116,0,151,0,
0.6233,-9.0,-154.5,-189.9,-205.2,1.2,-115.8,-491.1,0,0,1122,0,152,0,
0.6267,1.5,-153.3,-188.1,-202.8,3.0,-113.4,-486.9,0,0,1128,0,153,0,
0.6300,-0.9,-153.9,-187.8,-202.2,4.8,-112.5,-490.8,0,0,1134,0,154,0,
0.6333,0.6,-163.2,-186.3,-204.0,1.5,-116.1,-494.4,0,0,1140,0,155,0,
0.6367,-0.9,-164.4,-184.8,-206.4,1.2,-114.9,-488.4,0,0,1146,0,156,0,
0.6400,-2.4,-153.6,-188.7,-203.7,3.3,-110.4,-494.4,0,0,1152,0,157,0,
0.6433,-6.6,-149.1,-184.8,-197.7,2.4,-112.5,-490.5,0,0,1158,0,158,0,
0.6467,-4.8,-146.4,-186.6,-200.1,2.7,-110.7,-485.1,0,0,1164,0,159,0,
0.6500,9.3,-147.6,-186.0,-199.8,5.1,-111.6,-479.7,0,0,1170,0,160,0,
0.6533,5.4,-153.6,-188.1,-199.2,2.7,-111.0,-484.8,0,0,1176,0,161,0,
0.6567,5.1,-142.8,-188.1,-202.5,-0.9,-115.8,-486.9,0,0,1182,0,162,0,
0.6600,-4.2,-144.9,-187.5,-199.2,0.9,-112.2,-482.1,0,0,1188,0,163,0,
0.6633,9.0,-149.7,-189.9,-204.6,2.7,-113.4,-481.2,0,0,1194,0,164,0,
0.6667,4.5,-147.9,-186.3,-202.5,4.2,-108.9,-483.3,0,0,1200,0,165,0,
0.6700,9.0,-148.2,-190.8,-204.9,-0.9,-109.8,-492.6,0,0,1206,0,166,0,
0.6733,8.7,-153.9,-189.0,-202.2,-4.2,-111.6,-488.7,0,0,1212,0,167,0,
0.6767,7.8,-151.8,-181.5,-198.3,0.0,-111.6,-485.1,0,0,1218,0,168,0,
0.6800,1.5,-148.8,-183.3,-200.1,-3.3,-115.5,-479.7,0,0,1224,0,169,0,
0.6833,2.4,-145.5,-181.8,-198.0,-3.3,-115.5,-482.4,0,0,1230,0,170,0,
0.6867,-0.9,-151.8,-185.1,-198.9,-0.9,-116.1,-489.9,0,0,1236,0,171,0,
0.6900,1.5,-152.7,-187.8,-204.9,-0.3,-112.8,-493.5,0,0,1242,0,172,0,
0.6933,3.9,-167.7,-186.6,-201.6,-1.2,-114.6,-498.6,0,0,1248,0,173,0,
0.6967,-3.6,-164.7,-189.0,-202.8,-1.5,-122.4,-507.3,0,0,1254,0,174,0,
0.7000,-4.2,-157.5,-184.5,-202.8,-4.5,-122.1,-501.9,0,0,1260,0,175,0,
0.7033,-0.6,-155.4,-183.3,-199.2,0.0,-116.4,-495.9,0,0,1266,0,176,0,
0.7067,1.5,-159.0,-191.7,-198.6,-2.4,-117.3,-495.0,0,0,1272,0,177,0,
0.7100,7.5,-160.8,-182.7,-197.1,1.2,-115.2,-494.7,0,0,1278,0,178,0,
0.7133,1.2,-159.6,-184.8,-201.0,-0.9,-117.9,-497.4,0,0,1284,0,179,0,
0.7167,0.9,-155.1,-184.8,-202.2,-2.1,-121.8,-495.9,0,0,1290,0,180,0,
0.7200,6.3,-151.8,-179.1,-198.3,-0.9,-116.1,-491.4,0,0,1296,0,181,0,
0.7233,5.4,-156.9,-184.8,-200.7,-2.7,-120.3,-491.7,0,0,1302,0,182,0,
0.7267,-6.6,-161.7,-180.6,-201.9,-5.1,-120.0,-498.9,0,0,1308,0,183,0,
0.7300,3.6,-166.8,-183.6,-203.4,-4.2,-116.4,-504.6,0,0,1314,0,184,0,
0.7333,7.2,-160.2,-185.1,-200.4,-2.4,-112.8,-502.5,0,0,1320,0,185,0,
0.7367,3.6,-156.6,-185.1,-200.1,-0.3,-110.1,-498.9,0,0,1326,0,186,0,
0.7400,7.5,-151.8,-182.1,-198.9,3.0,-111.6,-495.6,0,0,1332,0,187,0,
0.7433,0.3,-155.1,-183.6,-199.2,1.8,-106.8,-489.0,0,0,1338,0,188,0,
0.7467,2.1,-162.9,-180.9,-198.3,-3.0,-114.9,-496.8,0,0,1344,0,189,0,
0.7500,3.9,-153.3,-182.4,-198.3,-3.3,-116.7,-501.0,0,0,1350,0,190,0,
0.7533,-2.1,-159.0,-186.3,-194.1,2.7,-114.0,-501.6,0,0,1356,0,191,0,
0.7567,-3.6,-154.5,-183.3,-193.8,3.6,-111.0,-492.6,0,0,1362,0,192,0,
0.7600,-0.6,-158.4,-184.5,-192.6,3.6,-114.0,-489.0,0,0,1368,0,193,0,
0.7633,3.3,-160.5,-185.7,-193.5,3.0,-112.2,-498.0,0,0,1374,0,194,0,
0.7667,0.3,-161.7,-183.9,-192.3,6.0,-114.6,-504.3,0,0,1380,0,195,0,
0.7700,-3.6,-160.8,-188.4,-197.1,1.2,-115.8,-508.8,0,0,1386,0,196,0,
0.7733,0.9,-161.4,-190.2,-198.0,2.4,-112.8,-508.2,0,0,1392,0,197,0,
0.7767,-2.7,-161.7,-187.8,-198.0,-1.5,-114.6,-513.9,0,0,1398,0,198,0,
0.7800,-5.7,-167.7,-194.4,-199.5,-2.4,-113.7,-507.9,0,0,1404,0,199,0,
0.7833,-6.0,-153.3,-186.3,-201.3,2.4,-111.0,-505.5,0,0,1410,0,200,0,
0.7867,-5.7,-157.5,-192.0,-201.6,0.3,-111.0,-500.7,0,0,1416,0,201,0,
0.7900,2.4,-158.7,-191.4,-204.3,1.2,-112.5,-501.0,0,0,1422,0,202,0,
0.7933,-4.8,-165.6,-195.3,-203.1,1.8,-113.1,-504.3,0,0,1428,0,203,0,
0.7967,3.9,-156.6,-190.2,-201.6,4.2,-110.4,-505.5,0,0,1434,0,204,0,
0.8000,-5.7,-168.0,-194.4,-200.7,1.5,-111.9,-508.5,0,0,1440,0,205,0,
0.8033,4.2,-159.9,-190.2,-198.0,1.5,-111.9,-502.8,0,0,1446,0,206,0,
0.8067,9.0,-163.5,-191.4,-198.0,-1.2,-109.8,-501.6,0,0,1452,0,207,0,
0.8100,1.2,-155.7,-188.4,-195.9,2.7,-107.1,-497.1,0,0,1458,0,208,0,
0.8133,6.6,-167.1,-189.6,-198.3,1.8,-112.8,-504.3,0,0,1464,0,209,0,
0.8167,4.8,-164.1,-191.1,-201.3,0.0,-115.2,-503.7,0,0,1470,0,210,0,
0.8200,4.8,-168.9,-192.9,-200.7,2.1,-111.9,-506.7,0,0,1476,0,211,0,
0.8233,4.8,-171.0,-196.5,-201.3,2.1,-108.9,-508.8,0,0,1482,0,212,0,
0.8267,3.9,-168.9,-197.1,-199.5,1.8,-109.5,-517.5,0,0,1488,0,213,0,
0.8300,6.6,-159.6,-194.7,-199.5,0.6,-113.4,-521.7,0,0,1494,0,214,0,
0.8333,5.1,-158.1,-194.1,-197.4,-1.2,-116.4,-503.1,0,0,1500,0,215,0,
0.8367,7.5,-161.7,-195.3,-198.0,0.6,-112.8,-499.2,0,0,1506,0,216,0,
0.8400,7.2,-161.1,-198.0,-197.1,0.3,-115.2,-502.5,0,0,1512,0,217,0,
0.8433,2.7,-164.1,-196.8,-195.3,2.1,-114.6,-505.5,0,0,1518,0,218,0,
0.8467,6.9,-165.9,-201.3,-200.1,0.6,-116.7,-511.8,0,0,1524,0,219,0,
0.8500,2.1,-172.8,-204.6,-200.1,-4.5,-120.3,-509.1,0,0,1530,0,220,0,
0.8533,-0.9,-169.8,-202.2,-201.0,-4.5,-120.9,-509.4,0,0,1536,0,221,0,
0.8567,6.3,-168.6,-204.6,-201.9,-2.7,-117.6,-512.7,0,0,1542,0,222,0,
0.8600,2.4,-168.9,-201.9,-205.8,-7.8,-125.1,-521.7,0,0,1548,0,223,0,
0.8633,1.5,-168.0,-202.8,-207.3,-7.2,-125.7,-516.9,0,0,1554,0,224,0,
0.8667,11.4,-169.2,-199.8,-202.8,-4.2,-125.4,-513.3,0,0,1560,0,225,0,
0.8700,4.8,-164.4,-204.0,-205.2,-7.2,-124.2,-508.2,0,0,1566,0,226,0,
0.8733,6.9,-168.9,-195.0,-201.6,-4.8,-116.1,-509.7,0,0,1572,0,227,0,
0.8767,1.5,-166.2,-200.1,-205.2,-8.4,-121.8,-515.7,0,0,1578,0,228,0,
0.8800,4.2,-161.7,-203.1,-201.9,-4.5,-118.8,-514.8,0,0,1584,0,229,0,
0.8833,5.1,-158.4,-202.8,-201.6,-6.6,-120.0,-516.0,0,0,1590,0,230,0,
0.8867,9.6,-154.8,-198.6,-202.2,-0.6,-119.1,-515.7,0,0,1596,0,231,0,
0.8900,8.7,-163.2,-196.8,-199.2,-2.7,-114.0,-521.1,0,0,1602,0,232,0,
0.8933,0.0,-159.3,-192.6,-198.0,-2.7,-114.6,-524.4,0,0,1608,0,233,0,
0.8967,-0.3,-162.6,-196.2,-199.5,-4.5,-116.7,-521.7,0,0,1614,0,234,0,
0.9000,4.2,-158.1,-197.4,-197.4,-4.2,-119.4,-508.8,0,0,1620,0,235,0,
0.9033,10.2,-150.6,-196.2,-197.1,-2.7,-116.4,-502.8,0,0,1626,0,236,0,
0.9067,2.7,-153.9,-194.1,-201.6,-6.3,-114.9,-509.1,0,0,1632,0,237,0,
0.9100,6.9,-157.8,-196.2,-199.8,-5.7,-118.2,-513.3,0,0,1638,0,238,0,
0.9133,8.1,-153.0,-200.7,-201.9,-3.9,-113.7,-505.8,0,0,1644,0,239,0,
0.9167,6.9,-159.6,-190.8,-199.5,-6.0,-116.1,-512.1,0,0,1650,0,240,0,
0.9200,4.5,-158.4,-198.0,-205.2,-4.2,-113.1,-512.4,0,0,1656,0,241,0,
0.9233,1.8,-159.9,-197.7,-200.7,-3.6,-115.2,-510.3,0,0,1662,0,242,0,
0.9267,11.7,-161.4,-200.4,-203.1,-5.1,-114.6,-512.7,0,0,1668,0,243,0,
0.9300,9.3,-150.0,-184.2,-196.8,-4.8,-117.6,-516.9,0,0,1674,0,244,0,
0.9333,-4.5,-159.3,-199.5,-202.2,-7.5,-118.2,-519.6,0,0,1680,0,245,0,
0.9367,-3.0,-169.5,-207.0,-205.8,-1.8,-115.8,-513.9,0,0,1686,0,246,0,
0.9400,-0.3,-168.0,-193.2,-200.1,-4.2,-115.8,-519.9,0,0,1692,0,247,0,
0.9433,16.8,-148.2,-184.5,-195.3,-0.3,-111.3,-507.9,0,0,1698,0,248,0,
0.9467,11.1,-158.4,-184.8,-198.0,-6.0,-120.0,-518.7,0,0,1704,0,249,0,
0.9500,7.2,-150.6,-189.0,-201.6,-8.7,-123.9,-523.8,0,0,1710,0,250,0,
0.9533,11.7,-141.9,-181.8,-195.0,-6.3,-123.3,-521.4,0,0,1716,0,251,0,
0.9567,13.2,-140.7,-186.6,-195.3,-3.0,-123.9,-529.8,0,0,1722,0,252,0,
0.9600,13.8,-141.6,-175.5,-187.2,-0.9,-119.4,-525.6,0,0,1728,0,253,0,
0.9633,16.2,-140.4,-173.4,-188.7,-2.4,-116.7,-523.2,0,0,1734,0,254,0,
0.9667,17.4,-142.2,-183.3,-192.3,-5.1,-123.6,-527.4,0,0,1740,0,255,0,
0.9700,13.5,-136.2,-175.2,-191.1,-3.6,-117.6,-526.2,0,0,1746,0,0,0,
0.9733,18.3,-132.6,-178.2,-192.0,-3.3,-121.2,-523.8,0,0,1752,0,1,0,
0.9767,14.4,-140.7,-180.9,-193.5,-7.8,-122.1,-536.1,0,0,1758,0,2,0,
0.9800,9.9,-143.7,-182.1,-195.3,-8.1,-118.8,-538.5,0,0,1764,0,3,0,
0.9833,5.7,-146.1,-186.9,-195.9,-7.2,-120.6,-537.9,0,0,1770,0,4,0,
0.9867,12.6,-143.1,-183.3,-193.2,-3.0,-121.2,-535.5,0,0,1776,0,5,0,
0.9900,14.1,-139.5,-176.1,-190.2,-0.3,-120.0,-528.3,0,0,1782,0,6,0,
0.9933,7.8,-148.5,-184.5,-196.8,-6.0,-124.5,-537.0,0,0,1788,0,7,0,
0.9967,0.0,-149.4,-186.3,-199.2,-6.0,-126.0,-531.6,0,0,1794,0,8,0,
1.0000,3.6,-147.9,-186.6,-198.3,-9.9,-126.6,-536.7,0,0,1800,0,9,0,
1.0033,3.3,-144.3,-186.3,-199.2,-5.7,-121.2,-532.5,0,0,1806,0,10,0,
1.0067,8.1,-154.2,-187.8,-200.7,-9.3,-125.1,-540.9,0,0,1812,0,11,0,
1.0100,-2.1,-162.9,-184.8,-198.9,-9.0,-124.8,-543.3,0,0,1818,0,12,0,
1.0133,3.6,-153.6,-188.7,-198.0,-5.1,-124.5,-542.4,0,0,1824,0,13,0,
1.0167,0.0,-152.1,-189.0,-196.2,-5.7,-121.5,-541.2,0,0,1830,0,14,0,
1.0200,-3.6,-149.4,-188.4,-195.9,-4.5,-122.7,-544.5,0,0,1836,0,15,0,
1.0233,-8.1,-155.1,-191.7,-202.2,-5.7,-125.4,-547.5,0,0,1842,0,16,0,
1.0267,-1.5,-149.7,-187.5,-201.0,-7.5,-121.2,-544.8,0,0,1848,0,17,0,
1.0300,3.6,-158.4,-193.8,-201.3,-9.9,-123.9,-543.9,0,0,1854,0,18,0,
1.0333,-6.6,-164.1,-193.2,-200.4,-9.9,-128.1,-547.5,0,0,1860,0,19,0,
1.0367,-2.7,-156.9,-194.4,-200.4,-7.8,-121.8,-542.7,0,0,1866,0,20,0,
1.0400,1.5,-156.0,-190.5,-198.6,-10.2,-122.4,-537.3,0,0,1872,0,21,0,
1.0433,-1.8,-155.1,-192.9,-199.8,-9.3,-123.0,-547.2,0,0,1878,0,22,0,
1.0467,-4.8,-154.2,-200.4,-201.0,-14.1,-128.7,-552.6,0,0,1884,0,23,0,
1.0500,1.5,-145.8,-190.8,-195.0,-9.0,-126.3,-543.9,0,0,1890,0,24,0,
1.0533,1.8,-154.5,-193.5,-197.7,-10.8,-123.6,-537.9,0,0,1896,0,25,0,
1.0567,-3.9,-161.4,-191.4,-197.7,-12.9,-131.1,-542.7,0,0,1902,0,26,0,
1.0600,4.5,-157.5,-199.8,-201.9,-10.8,-125.7,-538.8,0,0,1908,0,27,0,
1.0633,0.0,-163.2,-192.3,-202.8,-12.6,-129.6,-540.6,0,0,1914,0,28,0,
1.0667,1.2,-166.8,-186.6,-199.8,-10.5,-126.6,-540.3,0,0,1920,0,29,0,
1.0700,4.2,-159.9,-193.8,-203.7,-10.2,-127.8,-540.9,0,0,1926,0,30,0,
1.0733,9.3,-146.1,-192.6,-199.2,-8.1,-124.2,-537.6,0,0,1932,0,31,0,
1.0767,3.3,-150.0,-192.6,-199.8,-7.2,-122.4,-539.7,0,0,1938,0,32,0,
1.0800,10.2,-152.7,-183.0,-195.9,-8.4,-120.0,-536.7,0,0,1944,0,33,0,
1.0833,7.2,-149.7,-182.4,-198.6,-8.7,-121.8,-538.8,0,0,1950,0,34,0,
1.0867,9.9,-159.3,-185.4,-201.9,-12.3,-129.0,-552.3,0,0,1956,0,35,0,
1.0900,9.9,-157.8,-186.9,-203.7,-10.8,-126.6,-545.7,0,0,1962,0,36,0,
1.0933,12.3,-155.7,-187.5,-200.1,-10.8,-127.2,-543.9,0,0,1968,0,37,0,
1.0967,6.6,-146.7,-188.4,-204.3,-8.4,-124.8,-538.5,0,0,1974,0,38,0,
1.1000,2.1,-151.2,-181.2,-199.2,-9.0,-122.4,-539.4,0,0,1980,0,39,0,
1.1033,6.9,-159.3,-188.7,-201.6,-11.7,-122.4,-541.8,0,0,1986,0,40,0,
1.1067,13.8,-156.3,-187.5,-202.5,-9.9,-120.3,-538.2,0,0,1992,0,41,0,
1.1100,17.1,-143.1,-183.9,-195.6,-5.1,-117.3,-534.9,0,0,1998,0,42,0,
1.1133,25.2,-141.6,-183.3,-196.8,-4.5,-113.7,-528.0,0,0,2004,0,43,0,
1.1167,15.9,-144.3,-182.4,-196.5,-7.8,-117.9,-537.0,0,0,2010,0,44,0,
1.1200,11.1,-148.8,-185.4,-197.4,-6.0,-119.4,-543.3,0,0,2016,0,45,0,
1.1233,20.4,-141.0,-184.8,-197.1,-2.7,-115.5,-546.3,0,0,2022,0,46,0,
1.1267,20.1,-147.3,-186.6,-195.6,-7.5,-117.3,-546.0,0,0,2028,0,47,0,
1.1300,18.3,-150.0,-182.1,-197.4,-6.3,-117.0,-537.0,0,0,2034,0,48,0,
1.1333,9.0,-155.4,-184.8,-196.5,-5.1,-117.6,-534.6,0,0,2040,0,49,0,
1.1367,12.3,-151.8,-185.1,-194.4,-5.4,-117.6,-535.2,0,0,2046,0,50,0,
1.1400,13.8,-156.3,-194.7,-198.3,-8.1,-117.6,-531.6,0,0,2052,0,51,0,
1.1433,12.3,-149.1,-188.7,-196.8,-7.2,-117.3,-536.7,0,0,2058,0,52,0,
1.1467,4.8,-155.7,-194.4,-201.0,-8.7,-121.8,-544.5,0,0,2064,0,53,0,
1.1500,2.7,-155.7,-192.9,-198.6,-7.2,-120.0,-555.6,0,0,2070,0,54,0,
1.1533,5.4,-158.7,-192.0,-196.8,-6.9,-120.0,-550.5,0,0,2076,0,55,0,
1.1567,8.4,-157.5,-192.9,-196.8,-9.9,-123.0,-543.9,0,0,2082,0,56,0,
1.1600,7.8,-159.0,-187.5,-197.4,-9.6,-120.0,-538.8,0,0,2088,0,57,0,
1.1633,6.0,-160.8,-186.9,-198.0,-11.4,-121.8,-547.2,0,0,2094,0,58,0,
1.1667,12.0,-162.9,-188.7,-200.1,-7.2,-120.3,-546.9,0,0,2100,0,59,0,
1.1700,-0.6,-150.3,-194.1,-198.3,-13.2,-126.3,-542.4,0,0,2106,0,60,0,
1.1733,8.4,-151.8,-186.9,-197.1,-9.6,-123.0,-537.6,0,0,2112,0,61,0,
1.1767,-0.3,-165.3,-197.7,-203.1,-15.0,-133.2,-545.4,0,0,2118,0,62,0,
1.1800,5.4,-160.2,-195.0,-202.5,-12.0,-131.1,-540.9,0,0,2124,0,63,0,
1.1833,6.0,-162.6,-189.9,-197.4,-9.3,-125.4,-539.4,0,0,2130,0,64,0,
1.1867,8.4,-162.9,-187.2,-200.7,-9.6,-121.8,-534.9,0,0,2136,0,65,0,
1.1900,8.7,-154.5,-187.8,-201.9,-9.0,-123.0,-528.6,0,0,2142,0,66,0,
1.1933,12.0,-152.7,-189.9,-204.9,-12.0,-125.4,-531.6,0,0,2148,0,67,0,
1.1967,0.9,-158.7,-198.0,-210.9,-13.2,-125.4,-531.6,0,0,2154,0,68,0,
1.2000,18.3,-156.9,-192.3,-202.8,-8.7,-121.5,-527.4,0,0,2160,0,69,0,
1.2033,8.7,-168.0,-196.2,-208.8,-11.4,-122.7,-534.6,0,0,2166,0,70,0,
1.2067,5.7,-170.4,-192.6,-206.4,-13.5,-126.0,-530.7,0,0,2172,0,71,0,
1.2100,5.4,-170.1,-196.2,-208.8,-15.0,-131.1,-533.4,0,0,2178,0,72,0,
1.2133,5.7,-163.5,-195.3,-208.5,-13.2,-129.3,-529.2,0,0,2184,0,73,0,
1.2167,9.3,-165.3,-194.1,-204.9,-12.6,-133.5,-542.7,0,0,2190,0,74,0,
1.2200,10.5,-170.7,-189.0,-201.0,-10.2,-129.0,-538.5,0,0,2196,0,75,0,
1.2233,11.1,-159.3,-191.1,-199.8,-9.6,-129.3,-534.3,0,0,2202,0,76,0,
1.2267,9.0,-157.8,-188.4,-195.0,-10.2,-129.9,-522.9,0,0,2208,0,77,0,
1.2300,9.9,-161.4,-185.1,-190.8,-6.9,-126.3,-520.5,0,0,2214,0,78,0,
1.2333,14.1,-151.2,-186.3,-193.8,-11.1,-125.4,-520.5,0,0,2220,0,79,0,
1.2367,10.5,-150.9,-185.4,-195.0,-7.5,-120.6,-520.5,0,0,2226,0,80,0,
1.2400,15.3,-150.6,-187.5,-197.1,-6.9,-121.8,-519.9,0,0,2232,0,81,0,
1.2433,12.3,-153.3,-178.2,-194.1,-4.8,-122.4,-512.7,0,0,2238,0,82,0,
1.2467,13.5,-149.1,-173.4,-192.3,-6.0,-122.4,-512.7,0,0,2244,0,83,0,
1.2500,21.9,-145.2,-179.1,-192.9,-6.6,-124.5,-513.3,0,0,2250,0,84,0,
1.2533,21.3,-144.3,-176.7,-193.2,-4.2,-122.1,-515.4,0,0,2256,0,85,0,
1.2567,18.9,-141.0,-178.2,-191.4,-0.6,-119.1,-511.5,0,0,2262,0,86,0,
1.2600,14.1,-141.3,-175.5,-190.5,-3.9,-120.6,-511.2,0,0,2268,0,87,0,
1.2633,15.0,-150.9,-177.3,-192.6,-6.0,-124.8,-519.3,0,0,2274,0,88,0,
1.2667,10.2,-156.0,-170.4,-192.3,-4.5,-122.4,-510.9,0,0,2280,0,89,0,
1.2700,16.8,-142.2,-165.3,-188.4,-3.9,-121.5,-500.1,0,0,2286,0,90,0,
1.2733,13.2,-134.4,-167.1,-189.6,-0.6,-121.2,-501.0,0,0,2292,0,91,0,
1.2767,13.8,-135.9,-177.3,-195.0,-4.5,-122.1,-505.2,0,0,2298,0,92,0,
1.2800,21.3,-133.8,-171.3,-192.9,0.0,-115.8,-498.0,0,0,2304,0,93,0,
1.2833,18.3,-137.1,-165.3,-191.1,0.3,-118.2,-501.0,0,0,2310,0,94,0,
1.2867,15.9,-141.3,-163.8,-193.5,-4.5,-118.5,-507.6,0,0,2316,0,95,0,
1.2900,15.6,-139.2,-171.0,-192.6,-1.2,-119.1,-505.8,0,0,2322,0,96,0,
1.2933,20.4,-128.7,-159.0,-186.0,3.6,-114.0,-498.0,0,0,2328,0,97,0,
1.2967,13.5,-137.1,-163.5,-187.2,-1.5,-117.0,-502.2,0,0,2334,0,98,0,
1.3000,17.1,-135.3,-163.2,-185.1,2.4,-113.4,-499.8,0,0,2340,0,99,0,
1.3033,27.3,-133.2,-160.8,-186.6,2.7,-113.4,-498.9,0,0,2346,0,100,0,
1.3067,20.1,-134.1,-165.3,-183.6,2.4,-114.6,-500.7,0,0,2352,0,101,0,
1.3100,19.8,-141.9,-164.1,-187.8,1.8,-114.3,-508.8,0,0,2358,0,102,0,
1.3133,17.4,-137.7,-164.1,-183.6,0.0,-116.4,-502.8,0,0,2364,0,103,0,
1.3167,20.7,-139.2,-165.0,-184.8,0.9,-117.9,-506.7,0,0,2370,0,104,0,
1.3200,23.7,-130.5,-166.2,-182.4,4.2,-115.2,-509.7,0,0,2376,0,105,0,
1.3233,29.4,-127.8,-159.9,-183.9,6.9,-111.9,-507.9,0,0,2382,0,106,0,
1.3267,27.6,-127.2,-165.6,-182.7,7.2,-111.3,-501.6,0,0,2388,0,107,0,
1.3300,23.4,-133.5,-165.6,-185.4,7.8,-110.4,-501.6,0,0,2394,0,108,0,
1.3333,33.3,-129.3,-168.3,-182.4,8.1,-107.7,-495.9,0,0,2400,0,109,0,
1.3367,30.3,-132.6,-165.3,-183.6,9.3,-108.9,-498.0,0,0,2406,0,110,0,
1.3400,25.2,-117.9,-161.4,-179.1,11.4,-106.8,-489.0,0,0,2412,0,111,0,
1.3433,27.9,-131.7,-165.0,-187.8,6.6,-111.3,-496.2,0,0,2418,0,112,0,
1.3467,30.0,-128.1,-168.3,-189.3,6.6,-111.9,-498.9,0,0,2424,0,113,0,
1.3500,31.2,-132.3,-162.3,-189.3,8.1,-108.0,-497.1,0,0,2430,0,114,0,
1.3533,29.4,-135.6,-163.5,-183.0,8.4,-105.3,-500.4,0,0,2436,0,115,0,
1.3567,27.9,-131.4,-164.1,-184.5,7.2,-106.5,-500.4,0,0,2442,0,116,0,
1.3600,16.8,-144.9,-170.7,-191.4,-0.6,-123.6,-522.9,0,0,2448,0,117,0,
1.3633,16.2,-140.7,-168.6,-188.4,-1.5,-125.4,-521.4,0,0,2454,0,118,0,
1.3667,17.4,-129.9,-164.7,-186.9,1.2,-121.8,-519.3,0,0,2460,0,119,0,
1.3700,22.2,-131.4,-165.0,-186.3,2.4,-118.5,-515.7,0,0,2466,0,120,0,
1.3733,21.0,-139.8,-166.8,-186.9,2.4,-119.1,-516.6,0,0,2472,0,121,0,
1.3767,16.5,-138.9,-167.1,-188.4,-0.3,-121.2,-513.6,0,0,2478,0,122,0,
1.3800,21.6,-134.4,-164.7,-187.2,3.9,-113.7,-503.7,0,0,2484,0,123,0,
1.3833,16.2,-137.1,-168.9,-186.6,3.0,-116.7,-506.1,0,0,2490,0,124,0,
1.3867,7.2,-150.6,-167.7,-185.7,4.2,-117.3,-516.6,0,0,2496,0,125,0,
1.3900,12.3,-144.9,-169.5,-189.0,4.2,-116.7,-522.9,0,0,2502,0,126,0,
1.3933,9.9,-139.2,-170.1,-183.6,3.3,-114.9,-515.7,0,0,2508,0,127,0,
1.3967,17.4,-134.4,-169.2,-186.9,4.5,-117.3,-513.6,0,0,2514,0,128,0,
1.4000,12.9,-139.2,-169.8,-186.9,4.8,-113.7,-513.6,0,0,2520,0,129,0,
1.4033,15.9,-140.4,-167.1,-185.4,7.8,-113.7,-511.5,0,0,2526,0,130,0,
1.4067,15.0,-140.7,-163.5,-182.4,9.9,-114.6,-510.0,0,0,2532,0,131,0,
1.4100,18.0,-140.4,-171.3,-184.8,8.7,-114.6,-516.3,0,0,2538,0,132,0,
1.4133,11.1,-143.1,-171.3,-184.2,7.5,-113.1,-513.6,0,0,2544,0,133,0,
1.4167,10.2,-143.7,-167.7,-185.7,7.5,-114.9,-516.3,0,0,2550,0,134,0,
1.4200,15.3,-141.6,-165.0,-180.9,11.1,-108.0,-514.2,0,0,2556,0,135,0,
1.4233,15.9,-141.0,-166.8,-180.3,6.3,-109.8,-519.6,0,0,2562,0,136,0,
1.4267,19.8,-132.0,-171.0,-181.5,10.2,-105.3,-515.1,0,0,2568,0,137,0,
1.4300,18.9,-137.7,-161.4,-177.6,10.5,-106.2,-511.2,0,0,2574,0,138,0,
1.4333,11.4,-135.9,-166.8,-179.1,8.1,-110.7,-504.9,0,0,2580,0,139,0,
1.4367,19.8,-131.4,-167.4,-180.3,9.9,-109.8,-504.0,0,0,2586,0,140,0,
1.4400,26.1,-127.8,-170.1,-182.7,10.8,-109.5,-501.0,0,0,2592,0,141,0,
1.4433,26.7,-136.8,-166.5,-184.2,13.5,-109.5,-509.1,0,0,2598,0,142,0,
1.4467,15.6,-135.3,-172.5,-185.4,13.2,-108.3,-511.5,0,0,2604,0,143,0,
1.4500,6.9,-138.3,-168.3,-183.0,11.4,-111.3,-508.5,0,0,2610,0,144,0,
1.4533,14.4,-131.1,-170.7,-185.4,13.5,-110.4,-504.9,0,0,2616,0,145,0,
1.4567,24.0,-137.4,-168.9,-179.7,16.2,-108.0,-498.3,0,0,2622,0,146,0,
1.4600,19.2,-131.7,-173.7,-183.6,14.7,-105.3,-502.2,0,0,2628,0,147,0,
1.4633,12.6,-133.2,-173.4,-187.2,13.8,-108.3,-504.3,0,0,2634,0,148,0,
1.4667,6.9,-148.8,-176.4,-183.0,14.7,-108.3,-511.5,0,0,2640,0,149,0,
1.4700,12.9,-141.0,-173.1,-182.1,13.8,-108.0,-517.5,0,0,2646,0,150,0,
1.4733,21.3,-120.3,-168.6,-180.9,16.8,-105.6,-508.8,0,0,2652,0,151,0,
1.4767,26.4,-124.2,-168.0,-186.0,10.5,-111.0,-509.1,0,0,2658,0,152,0,
1.4800,25.2,-124.5,-168.0,-184.8,11.1,-111.6,-506.1,0,0,2664,0,153,0,
1.4833,21.3,-116.4,-163.2,-183.9,11.1,-110.7,-508.2,0,0,2670,0,154,0,
1.4867,20.4,-110.4,-160.5,-180.9,16.2,-109.5,-507.6,0,0,2676,0,155,0,
1.4900,18.3,-117.0,-162.9,-177.0,14.1,-114.6,-516.0,0,0,2682,0,156,0,
1.4933,24.6,-97.8,-156.6,-180.6,6.9,-113.4,-511.8,0,0,2688,0,157,0,
1.4967,20.7,-106.8,-153.3,-177.6,8.4,-112.2,-517.5,0,0,2694,0,158,0,
1.5000,24.3,-110.7,-153.0,-176.4,7.5,-116.4,-526.2,0,0,2700,0,159,0,
1.5033,26.4,-94.8,-149.1,-171.3,7.8,-116.4,-518.4,0,0,2706,0,160,0,
1.5067,26.1,-108.3,-152.1,-175.5,7.5,-117.0,-522.0,0,0,2712,0,161,0,
1.5100,25.8,-102.9,-152.1,-174.6,3.6,-120.3,-528.0,0,0,2718,0,162,0,
1.5133,27.9,-91.8,-144.6,-174.0,3.9,-118.5,-521.4,0,0,2724,0,163,0,
1.5167,28.5,-95.1,-147.3,-171.3,9.3,-114.0,-522.9,0,0,2730,0,164,0,
1.5200,23.4,-107.1,-151.5,-174.6,10.5,-117.0,-521.4,0,0,2736,0,165,0,
1.5233,23.1,-110.1,-148.5,-171.6,11.7,-114.0,-523.8,0,0,2742,0,166,0,
1.5267,20.4,-103.8,-150.0,-175.5,8.4,-118.5,-524.1,0,0,2748,0,167,0,
1.5300,26.1,-96.9,-148.2,-174.0,9.6,-114.3,-532.8,0,0,2754,0,168,0,
1.5333,25.5,-101.1,-146.7,-171.3,6.3,-119.4,-541.8,0,0,2760,0,169,0,
1.5367,25.5,-96.0,-148.5,-175.2,6.6,-120.0,-542.1,0,0,2766,0,170,0,
1.5400,23.4,-101.7,-152.7,-177.6,8.1,-120.6,-535.5,0,0,2772,0,171,0,
1.5433,25.2,-92.7,-147.0,-177.6,6.9,-121.5,-532.2,0,0,2778,0,172,0,
1.5467,18.6,-105.6,-145.2,-179.1,5.4,-121.2,-535.2,0,0,2784,0,173,0,
1.5500,15.0,-102.9,-144.6,-178.5,6.6,-120.3,-534.3,0,0,2790,0,174,0,
1.5533,21.3,-105.3,-150.3,-177.0,6.3,-121.5,-534.9,0,0,2796,0,175,0,
1.5567,18.3,-101.7,-148.2,-177.0,6.0,-120.0,-528.6,0,0,2802,0,176,0,
1.5600,25.8,-105.6,-151.2,-175.5,6.3,-117.0,-528.6,0,0,2808,0,177,0,
1.5633,26.4,-110.7,-145.2,-171.9,9.6,-115.5,-534.6,0,0,2814,0,178,0,
1.5667,20.1,-112.2,-149.7,-177.0,6.6,-114.6,-536.4,0,0,2820,0,179,0,
1.5700,29.4,-101.1,-149.7,-174.3,6.9,-112.8,-534.3,0,0,2826,0,180,0,
1.5733,27.3,-101.1,-152.1,-176.7,6.3,-117.3,-538.5,0,0,2832,0,181,0,
1.5767,27.3,-105.6,-150.6,-174.0,5.1,-110.1,-535.2,0,0,2838,0,182,0,
1.5800,18.0,-122.7,-149.4,-173.1,4.2,-113.4,-542.1,0,0,2844,0,183,0,
1.5833,15.6,-105.9,-140.7,-170.4,2.7,-120.0,-546.9,0,0,2850,0,184,0,
1.5867,25.2,-97.5,-141.9,-168.6,6.6,-116.1,-545.4,0,0,2856,0,185,0,
1.5900,27.3,-95.7,-141.6,-163.8,9.3,-117.9,-535.2,0,0,2862,0,186,0,
1.5933,30.9,-99.3,-141.3,-163.8,12.0,-112.2,-524.7,0,0,2868,0,187,0,
1.5967,29.7,-94.8,-146.4,-168.3,7.8,-119.1,-530.4,0,0,2874,0,188,0,
1.6000,28.2,-99.3,-147.3,-170.1,7.8,-117.3,-531.9,0,0,2880,0,189,0,
1.6033,34.5,-104.1,-144.0,-168.0,10.8,-112.2,-522.3,0,0,2886,0,190,0,
1.6067,30.9,-107.4,-142.2,-164.1,12.6,-111.9,-528.3,0,0,2892,0,191,0,
1.6100,36.0,-96.0,-140.7,-161.7,14.4,-108.3,-528.9,0,0,2898,0,192,0,
1.6133,24.6,-97.2,-141.9,-163.8,14.1,-110.4,-530.1,0,0,2904,0,193,0,
1.6167,39.6,-92.4,-144.3,-168.0,16.5,-107.7,-519.9,0,0,2910,0,194,0,
1.6200,31.5,-103.8,-148.8,-165.9,13.5,-115.2,-534.3,0,0,2916,0,195,0,
1.6233,33.3,-98.4,-149.1,-170.7,8.1,-115.2,-536.4,0,0,2922,0,196,0,
1.6267,33.0,-95.1,-145.8,-169.8,12.6,-111.0,-531.3,0,0,2928,0,197,0,
1.6300,29.7,-92.1,-141.3,-165.6,13.2,-109.2,-538.5,0,0,2934,0,198,0,
1.6333,24.3,-108.9,-149.7,-169.8,15.0,-111.3,-544.5,0,0,2940,0,199,0,
1.6367,28.8,-96.9,-147.3,-169.8,11.7,-116.1,-535.8,0,0,2946,0,200,0,
1.6400,32.1,-99.6,-151.8,-174.3,7.8,-119.4,-543.3,0,0,2952,0,201,0,
1.6433,33.0,-97.5,-152.4,-173.4,9.9,-114.3,-543.3,0,0,2958,0,202,0,
1.6467,23.1,-108.9,-149.1,-171.9,6.9,-119.4,-549.3,0,0,2964,0,203,0,
1.6500,28.5,-106.5,-148.5,-168.6,7.2,-116.7,-534.0,0,0,2970,0,204,0,
1.6533,24.6,-98.4,-148.8,-167.4,8.7,-118.5,-536.1,0,0,2976,0,205,0,
1.6567,27.6,-106.8,-148.2,-167.7,6.6,-124.5,-545.7,0,0,2982,0,206,0,
1.6600,22.8,-114.0,-152.4,-169.5,6.3,-119.1,-552.3,0,0,2988,0,207,0,
1.6633,29.7,-101.7,-152.7,-172.2,11.7,-111.9,-544.8,0,0,2994,0,208,0,
1.6667,30.9,-117.3,-154.5,-173.4,8.4,-114.6,-547.8,0,0,3000,0,209,0,
1.6700,28.5,-106.5,-156.3,-175.8,7.5,-120.3,-555.0,0,0,3006,0,210,0,
1.6733,21.6,-111.9,-163.2,-177.3,3.0,-124.8,-555.9,0,0,3012,0,211,0,
1.6767,25.5,-107.1,-164.4,-177.6,5.4,-119.4,-549.3,0,0,3018,0,212,0,
1.6800,18.6,-115.5,-162.3,-174.9,3.6,-124.5,-558.0,0,0,3024,0,213,0,
1.6833,19.2,-116.4,-159.3,-170.7,6.3,-120.9,-555.6,0,0,3030,0,214,0,
1.6867,14.7,-111.0,-162.9,-178.2,6.3,-126.6,-560.4,0,0,3036,0,215,0,
1.6900,25.5,-113.1,-162.9,-175.8,5.7,-120.9,-551.4,0,0,3042,0,216,0,
1.6933,20.7,-114.3,-157.2,-171.6,6.3,-120.9,-548.7,0,0,3048,0,217,0,
1.6967,24.0,-116.4,-161.4,-172.8,3.6,-120.3,-552.9,0,0,3054,0,218,0,
1.7000,17.7,-116.1,-160.5,-170.4,3.9,-123.9,-572.1,0,0,3060,0,219,0,
1.7033,9.3,-119.7,-158.4,-170.7,4.8,-126.6,-572.1,0,0,3066,0,220,0,
1.7067,16.2,-130.2,-163.5,-174.0,-0.3,-129.9,-567.6,0,0,3072,0,221,0,
1.7100,18.0,-120.6,-164.7,-173.7,2.1,-125.7,-551.1,0,0,3078,0,222,0,
1.7133,25.5,-110.1,-160.5,-174.3,4.8,-122.4,-540.0,0,0,3084,0,223,0,
1.7167,18.0,-114.9,-160.2,-174.3,1.8,-127.2,-543.3,0,0,3090,0,224,0,
1.7200,15.3,-115.2,-162.0,-167.4,4.2,-125.1,-554.1,0,0,3096,0,225,0,
1.7233,19.2,-112.2,-153.6,-165.9,4.2,-122.4,-550.5,0,0,3102,0,226,0,
1.7267,18.0,-105.6,-155.1,-168.3,7.5,-119.4,-547.5,0,0,3108,0,227,0,
1.7300,5.7,-108.9,-157.5,-167.1,6.9,-117.9,-557.1,0,0,3114,0,228,0,
1.7333,10.2,-116.1,-146.1,-164.1,6.3,-123.3,-565.8,0,0,3120,0,229,0,
1.7367,16.8,-105.9,-150.9,-166.5,5.7,-120.6,-553.2,0,0,3126,0,230,0,
1.7400,23.7,-94.5,-154.8,-162.0,12.0,-113.4,-542.4,0,0,3132,0,231,0,
1.7433,16.8,-97.5,-159.0,-168.9,8.4,-117.3,-538.5,0,0,3138,0,232,0,
1.7467,9.0,-101.1,-156.6,-168.0,6.6,-122.7,-549.3,0,0,3144,0,233,0,
1.7500,6.9,-107.4,-159.9,-165.9,6.0,-123.0,-545.1,0,0,3150,0,234,0,
1.7533,9.3,-108.9,-158.4,-168.0,7.5,-124.2,-550.2,0,0,3156,0,235,0,
1.7567,10.5,-115.5,-158.7,-171.9,7.2,-120.3,-552.9,0,0,3162,0,236,0,
1.7600,7.5,-110.1,-154.5,-168.0,7.8,-122.7,-553.5,0,0,3168,0,237,0,
1.7633,8.4,-110.7,-161.4,-166.2,7.8,-123.6,-549.9,0,0,3174,0,238,0,
1.7667,8.1,-110.7,-158.4,-165.9,6.3,-125.4,-547.2,0,0,3180,0,239,0,
1.7700,9.3,-108.0,-158.7,-164.7,9.6,-123.6,-548.1,0,0,3186,0,240,0,
1.7733,16.2,-99.3,-151.8,-162.3,14.1,-119.7,-550.5,0,0,3192,0,241,0,
1.7767,11.1,-109.5,-158.1,-166.8,11.7,-124.8,-559.2,0,0,3198,0,242,0,
1.7800,2.1,-112.5,-158.1,-168.0,7.8,-126.6,-561.9,0,0,3204,0,243,0,
1.7833,0.6,-110.1,-156.0,-166.2,8.7,-125.4,-561.6,0,0,3210,0,244,0,
1.7867,0.3,-120.0,-159.6,-168.6,4.5,-126.0,-558.9,0,0,3216,0,245,0,
1.7900,9.3,-117.3,-160.8,-171.3,4.8,-123.3,-552.0,0,0,3222,0,246,0,
1.7933,1.2,-122.7,-164.1,-171.6,4.2,-127.2,-549.9,0,0,3228,0,247,0,
1.7967,12.3,-112.5,-157.2,-168.6,5.1,-119.1,-543.0,0,0,3234,0,248,0,
1.8000,11.4,-111.3,-160.2,-168.9,6.3,-119.1,-546.9,0,0,3240,0,249,0,
1.8033,12.3,-108.6,-161.7,-168.6,4.2,-120.9,-555.9,0,0,3246,0,250,0,
1.8067,8.4,-114.9,-159.9,-166.2,4.8,-124.8,-559.5,0,0,3252,0,251,0,
1.8100,10.5,-115.8,-155.1,-167.1,6.3,-121.5,-551.1,0,0,3258,0,252,0,
1.8133,6.9,-109.5,-157.5,-165.6,8.1,-118.8,-550.2,0,0,3264,0,253,0,
1.8167,7.2,-105.3,-150.9,-161.4,7.8,-119.7,-553.5,0,0,3270,0,254,0,
1.8200,21.9,-97.2,-149.7,-159.6,11.4,-115.2,-547.2,0,0,3276,0,255,0,
1.8233,18.3,-99.9,-150.6,-159.6,10.5,-117.9,-539.7,0,0,3282,0,0,0,
1.8267,17.4,-107.7,-142.8,-157.2,9.0,-118.2,-542.1,0,0,3288,0,1,0,
1.8300,25.5,-90.3,-142.2,-153.9,10.8,-110.7,-541.8,0,0,3294,0,2,0,
1.8333,21.9,-97.5,-156.0,-159.3,7.5,-118.2,-549.9,0,0,3300,0,3,0,
1.8367,13.2,-105.0,-154.2,-161.4,4.5,-120.6,-552.6,0,0,3306,0,4,0,
1.8400,11.4,-106.2,-153.6,-162.3,5.4,-119.7,-551.1,0,0,3312,0,5,0,
1.8433,17.4,-113.7,-153.6,-161.7,9.0,-118.5,-549.0,0,0,3318,0,6,0,
1.8467,12.9,-108.6,-153.3,-161.4,11.4,-117.6,-551.1,0,0,3324,0,7,0,
1.8500,13.5,-108.6,-153.9,-161.4,8.7,-114.6,-554.7,0,0,3330,0,8,0,
1.8533,12.6,-110.4,-161.4,-163.8,10.2,-115.2,-555.3,0,0,3336,0,9,0,
1.8567,13.2,-109.8,-155.4,-161.4,10.2,-115.2,-558.6,0,0,3342,0,10,0,
1.8600,20.4,-103.2,-152.7,-156.6,12.9,-112.8,-561.0,0,0,3348,0,11,0,
1.8633,18.3,-98.7,-147.9,-158.7,10.5,-111.6,-567.6,0,0,3354,0,12,0,
1.8667,15.3,-100.5,-149.1,-159.0,11.4,-111.9,-565.2,0,0,3360,0,13,0,
1.8700,16.2,-110.4,-151.5,-159.0,9.9,-113.4,-556.2,0,0,3366,0,14,0,
1.8733,23.7,-110.7,-148.5,-160.8,13.5,-112.5,-556.5,0,0,3372,0,15,0,
1.8767,21.9,-104.7,-144.9,-158.7,11.7,-107.7,-555.9,0,0,3378,0,16,0,
1.8800,16.2,-105.9,-150.3,-161.7,11.4,-108.9,-558.6,0,0,3384,0,17,0,
1.8833,16.8,-105.0,-150.3,-160.8,10.5,-108.3,-558.6,0,0,3390,0,18,0,
1.8867,15.9,-117.0,-149.4,-160.8,12.6,-109.8,-558.6,0,0,3396,0,19,0,
1.8900,17.4,-110.4,-150.3,-160.5,13.2,-108.0,-558.6,0,0,3402,0,20,0,
1.8933,8.1,-105.6,-150.9,-158.7,9.0,-114.6,-569.1,0,0,3408,0,21,0,
1.8967,10.8,-113.7,-156.3,-162.6,9.0,-115.2,-576.3,0,0,3414,0,22,0,
1.9000,9.3,-113.7,-161.7,-163.8,9.6,-114.9,-576.9,0,0,3420,0,23,0,
1.9033,2.4,-111.0,-157.8,-163.2,8.4,-114.9,-573.0,0,0,3426,0,24,0,
1.9067,9.0,-114.0,-162.0,-167.7,7.5,-117.0,-573.0,0,0,3432,0,25,0,
1.9100,11.1,-116.4,-163.2,-170.4,8.4,-116.4,-576.0,0,0,3438,0,26,0,
1.9133,7.8,-118.2,-166.5,-169.8,6.9,-116.4,-578.1,0,0,3444,0,27,0,
1.9167,7.8,-120.0,-165.3,-169.8,7.2,-117.3,-580.5,0,0,3450,0,28,0,
1.9200,8.4,-118.2,-162.6,-168.3,8.1,-114.9,-574.5,0,0,3456,0,29,0,
1.9233,5.7,-128.1,-164.7,-169.5,6.6,-117.3,-570.3,0,0,3462,0,30,0,
1.9267,0.9,-126.9,-161.7,-168.3,7.8,-119.4,-575.1,0,0,3468,0,31,0,
1.9300,1.8,-125.7,-164.7,-170.1,2.1,-120.3,-573.0,0,0,3474,0,32,0,
1.9333,10.8,-120.0,-164.4,-170.7,3.0,-118.5,-576.0,0,0,3480,0,33,0,
1.9367,1.5,-117.9,-168.3,-172.8,3.6,-114.3,-576.6,0,0,3486,0,34,0,
1.9400,6.3,-110.7,-160.8,-168.9,3.9,-118.5,-577.8,0,0,3492,0,35,0,
1.9433,5.4,-108.3,-156.0,-168.0,4.2,-122.1,-575.1,0,0,3498,0,36,0,
1.9467,3.9,-115.8,-161.1,-171.0,2.1,-123.6,-568.2,0,0,3504,0,37,0,
1.9500,3.3,-116.4,-157.5,-168.9,6.0,-118.5,-564.3,0,0,3510,0,38,0,
1.9533,10.5,-115.2,-153.0,-165.9,4.8,-119.7,-565.8,0,0,3516,0,39,0,
1.9567,4.8,-124.2,-158.4,-170.7,3.9,-125.7,-573.6,0,0,3522,0,40,0,
1.9600,9.0,-119.1,-161.1,-167.1,8.1,-124.2,-564.3,0,0,3528,0,41,0,
1.9633,5.4,-115.2,-159.3,-173.1,5.1,-123.9,-568.8,0,0,3534,0,42,0,
1.9667,6.6,-118.2,-162.6,-172.2,5.1,-120.3,-558.6,0,0,3540,0,43,0,
1.9700,5.7,-117.0,-160.2,-173.1,4.2,-122.4,-560.7,0,0,3546,0,44,0,
1.9733,7.2,-119.4,-156.6,-168.9,6.6,-122.1,-552.6,0,0,3552,0,45,0,
1.9767,6.9,-118.8,-154.5,-170.7,5.1,-119.1,-550.8,0,0,3558,0,46,0,
1.9800,8.7,-114.6,-155.1,-168.9,8.4,-118.2,-548.7,0,0,3564,0,47,0,
1.9833,6.9,-122.7,-154.2,-171.3,8.7,-124.2,-554.4,0,0,3570,0,48,0,
1.9867,11.1,-120.3,-158.7,-171.6,9.9,-119.1,-548.7,0,0,3576,0,49,0,
1.9900,6.3,-115.2,-153.6,-172.2,7.5,-120.9,-552.3,0,0,3582,0,50,0,
1.9933,9.9,-111.9,-155.4,-168.3,15.0,-115.8,-546.9,0,0,3588,0,51,0,
1.9967,12.6,-113.7,-161.7,-170.7,9.9,-118.5,-543.9,0,0,3594,0,52,0,
2.0000,14.1,-113.7,-158.7,-171.6,12.3,-111.9,-541.5,0,0,3600,0,53,0,
2.0033,16.5,-107.7,-157.8,-171.0,17.1,-108.3,-534.6,0,0,3606,0,54,0,
2.0067,17.1,-108.6,-149.1,-165.0,16.8,-109.8,-535.2,0,0,3612,0,55,0,
2.0100,19.2,-110.7,-147.3,-163.5,16.8,-115.8,-540.6,0,0,3618,0,56,0,
2.0133,22.8,-109.8,-149.7,-162.3,15.0,-115.5,-540.3,0,0,3624,0,57,0,
2.0167,20.1,-109.8,-148.2,-165.9,16.8,-117.0,-534.9,0,0,3630,0,58,0,
2.0200,15.0,-113.7,-146.4,-161.7,15.0,-115.2,-530.1,0,0,3636,0,59,0,
2.0233,25.8,-118.2,-141.3,-156.9,18.3,-113.4,-535.2,0,0,3642,0,60,0,
2.0267,15.9,-133.2,-147.9,-162.9,18.6,-111.0,-532.5,0,0,3648,0,61,0,
2.0300,23.4,-115.8,-140.1,-157.5,21.3,-111.3,-527.4,0,0,3654,0,62,0,
2.0333,27.6,-101.7,-137.7,-155.1,20.1,-110.4,-525.9,0,0,3660,0,63,0,
2.0367,29.1,-89.1,-135.9,-156.9,19.5,-108.0,-516.9,0,0,3666,0,64,0,
2.0400,32.4,-78.0,-132.9,-154.8,23.4,-106.8,-519.3,0,0,3672,0,65,0,
2.0433,30.0,-93.3,-136.8,-155.4,21.6,-109.8,-520.2,0,0,3678,0,66,0,
2.0467,28.2,-103.2,-141.9,-159.0,22.8,-106.2,-522.0,0,0,3684,0,67,0,
2.0500,29.7,-97.8,-138.0,-158.4,21.9,-108.0,-517.8,0,0,3690,0,68,0,
2.0533,24.6,-103.8,-147.6,-160.5,18.9,-111.6,-519.9,0,0,3696,0,69,0,
2.0567,23.1,-98.4,-143.7,-159.3,18.9,-113.7,-517.5,0,0,3702,0,70,0,
2.0600,27.3,-101.4,-139.2,-155.7,18.9,-111.3,-519.9,0,0,3708,0,71,0,
2.0633,27.6,-109.2,-139.2,-156.9,16.5,-112.2,-525.0,0,0,3714,0,72,0,
2.0667,31.5,-100.8,-140.4,-156.3,18.3,-108.0,-515.4,0,0,3720,0,73,0,
2.0700,39.9,-87.9,-135.0,-152.7,23.7,-102.6,-502.2,0,0,3726,0,74,0,
2.0733,37.2,-85.2,-132.6,-149.7,24.3,-99.0,-504.9,0,0,3732,0,75,0,
2.0767,34.5,-94.2,-132.0,-150.9,21.9,-98.4,-514.2,0,0,3738,0,76,0,
2.0800,43.8,-91.5,-132.9,-152.7,22.8,-99.9,-513.0,0,0,3744,0,77,0,
2.0833,35.7,-90.9,-128.1,-153.9,21.6,-105.3,-514.2,0,0,3750,0,78,0,
2.0867,26.7,-104.1,-137.7,-158.1,22.5,-102.9,-518.1,0,0,3756,0,79,0,
2.0900,27.3,-103.8,-132.3,-158.4,23.4,-106.8,-518.7,0,0,3762,0,80,0,
2.0933,33.9,-99.6,-136.5,-155.4,23.7,-105.3,-515.1,0,0,3768,0,81,0,
2.0967,28.5,-95.7,-143.1,-160.5,22.2,-106.5,-514.8,0,0,3774,0,82,0,
2.1000,35.4,-102.9,-137.7,-157.2,20.7,-104.1,-512.1,0,0,3780,0,83,0,
2.1033,38.7,-103.5,-133.8,-158.4,24.9,-102.9,-510.0,0,0,3786,0,84,0,
2.1067,31.2,-100.2,-138.6,-162.0,19.5,-103.8,-516.0,0,0,3792,0,85,0,
2.1100,26.4,-102.0,-139.8,-162.0,21.3,-107.7,-519.3,0,0,3798,0,86,0,
2.1133,27.3,-100.2,-132.9,-159.6,20.1,-105.9,-519.0,0,0,3804,0,87,0,
2.1167,28.2,-96.3,-133.8,-156.3,18.0,-111.3,-519.6,0,0,3810,0,88,0,
2.1200,25.8,-93.3,-128.1,-153.9,15.6,-109.8,-515.7,0,0,3816,0,89,0,
2.1233,30.0,-101.7,-136.2,-157.5,18.6,-108.6,-520.5,0,0,3822,0,90,0,
2.1267,32.1,-101.4,-128.1,-153.3,23.4,-101.1,-513.9,0,0,3828,0,91,0,
2.1300,38.4,-97.5,-128.7,-149.4,27.0,-101.1,-511.5,0,0,3834,0,92,0,
2.1333,35.4,-103.8,-129.3,-152.7,24.6,-100.2,-513.6,0,0,3840,0,93,0,
2.1367,29.7,-108.9,-126.0,-150.0,20.7,-108.3,-527.7,0,0,3846,0,94,0,
2.1400,29.4,-99.6,-126.0,-148.2,23.4,-109.5,-525.0,0,0,3852,0,95,0,
2.1433,35.1,-93.6,-138.9,-153.9,22.8,-108.9,-522.6,0,0,3858,0,96,0,
2.1467,35.4,-87.6,-137.7,-156.3,22.8,-105.3,-523.5,0,0,3864,0,97,0,
2.1500,32.7,-94.2,-136.8,-154.8,20.4,-110.4,-522.3,0,0,3870,0,98,0,
2.1533,30.6,-105.3,-138.0,-151.8,21.6,-110.7,-528.9,0,0,3876,0,99,0,
2.1567,29.4,-101.7,-138.9,-154.2,21.6,-112.2,-535.2,0,0,3882,0,100,0,
2.1600,32.7,-100.5,-139.2,-152.7,19.2,-109.8,-529.8,0,0,3888,0,101,0,
2.1633,28.5,-98.4,-138.9,-154.8,18.6,-111.6,-526.5,0,0,3894,0,102,0,
2.1667,27.6,-108.9,-141.9,-161.4,19.8,-110.1,-527.4,0,0,3900,0,103,0,
2.1700,29.1,-105.9,-146.7,-162.6,22.2,-109.5,-532.2,0,0,3906,0,104,0,
2.1733,30.3,-112.2,-143.7,-162.6,18.6,-111.9,-539.1,0,0,3912,0,105,0,
2.1767,27.3,-107.4,-144.9,-160.2,18.0,-114.9,-534.6,0,0,3918,0,106,0,
2.1800,29.4,-109.2,-138.3,-157.5,21.0,-114.9,-530.1,0,0,3924,0,107,0,
2.1833,24.0,-108.6,-138.0,-154.5,22.5,-108.6,-523.8,0,0,3930,0,108,0,
2.1867,25.2,-97.8,-136.8,-153.9,22.8,-109.8,-522.3,0,0,3936,0,109,0,
2.1900,28.8,-94.2,-130.2,-152.7,25.2,-105.6,-520.5,0,0,3942,0,110,0,
2.1933,37.2,-92.1,-120.3,-149.7,25.2,-99.0,-514.2,0,0,3948,0,111,0,
2.1967,22.2,-98.4,-137.4,-156.6,17.7,-109.5,-525.3,0,0,3954,0,112,0,
2.2000,18.0,-96.6,-132.6,-151.8,20.1,-104.1,-516.3,0,0,3960,0,113,0,
2.2033,27.9,-100.2,-138.0,-155.7,18.3,-102.0,-522.0,0,0,3966,0,114,0,
2.2067,21.9,-96.9,-137.1,-154.8,19.5,-101.1,-525.0,0,0,3972,0,115,0,
2.2100,28.8,-93.0,-137.1,-154.8,21.3,-100.5,-522.9,0,0,3978,0,116,0,
2.2133,33.3,-88.5,-127.5,-151.5,21.0,-99.9,-517.5,0,0,3984,0,117,0,
2.2167,30.0,-92.7,-130.8,-155.7,20.7,-99.9,-519.9,0,0,3990,0,118,0,
2.2200,28.5,-95.7,-136.5,-151.8,20.4,-103.8,-523.2,0,0,3996,0,119,0,
2.2233,34.8,-88.2,-132.6,-148.8,23.4,-98.4,-520.2,0,0,4002,0,120,0,
2.2267,39.0,-85.8,-128.1,-148.2,19.8,-100.5,-513.9,0,0,4008,0,121,0,
2.2300,31.2,-90.9,-132.6,-150.9,15.6,-105.9,-519.9,0,0,4014,0,122,0,
2.2333,28.8,-91.2,-131.7,-150.9,17.4,-103.8,-519.6,0,0,4020,0,123,0,
2.2367,33.0,-91.5,-132.9,-152.1,20.1,-105.0,-521.7,0,0,4026,0,124,0,
2.2400,29.7,-91.5,-130.8,-152.1,20.4,-101.7,-523.5,0,0,4032,0,125,0,
2.2433,25.8,-99.0,-123.9,-148.5,19.5,-103.8,-513.9,0,0,4038,0,126,0,
2.2467,28.5,-95.4,-122.1,-151.8,18.0,-104.4,-513.6,0,0,4044,0,127,0,
2.2500,33.6,-89.4,-132.6,-150.6,23.1,-101.1,-513.3,0,0,4050,0,128,0,
2.2533,33.3,-89.1,-126.3,-149.7,23.7,-96.3,-511.8,0,0,4056,0,129,0,
2.2567,31.2,-101.1,-132.0,-150.0,18.0,-110.1,-523.2,0,0,4062,0,130,0,
2.2600,30.0,-92.4,-131.1,-150.6,15.6,-111.6,-519.3,0,0,4068,0,131,0,
2.2633,18.9,-91.8,-133.2,-145.8,19.2,-103.8,-517.5,0,0,4074,0,132,0,
2.2667,27.0,-93.0,-130.2,-145.8,21.6,-102.3,-515.7,0,0,4080,0,133,0,
2.2700,36.6,-90.6,-131.7,-146.4,22.5,-102.3,-515.4,0,0,4086,0,134,0,
2.2733,30.6,-87.9,-126.6,-144.0,25.5,-100.8,-514.5,0,0,4092,0,135,0,
2.2767,31.2,-84.3,-125.7,-139.8,28.5,-99.3,-512.4,0,0,4098,0,136,0,
2.2800,34.5,-81.3,-129.9,-142.5,26.1,-96.6,-511.2,0,0,4104,0,137,0,
2.2833,27.9,-82.8,-126.3,-140.4,25.5,-102.0,-516.0,0,0,4110,0,138,0,
2.2867,22.2,-88.5,-130.5,-143.4,23.4,-104.4,-521.1,0,0,4116,0,139,0,
2.2900,26.4,-98.4,-137.1,-148.2,23.7,-105.0,-524.1,0,0,4122,0,140,0,
2.2933,29.7,-94.2,-126.9,-145.5,27.3,-100.8,-526.2,0,0,4128,0,141,0,
2.2967,24.0,-98.4,-119.1,-144.0,28.8,-101.4,-522.6,0,0,4134,0,142,0,
2.3000,27.3,-91.5,-124.8,-146.4,28.5,-101.1,-524.1,0,0,4140,0,143,0,
2.3033,23.4,-88.8,-136.8,-150.6,25.2,-100.8,-525.6,0,0,4146,0,144,0,
2.3067,27.6,-88.5,-134.7,-150.3,26.4,-100.2,-518.4,0,0,4152,0,145,0,
2.3100,27.0,-91.5,-131.4,-148.5,28.5,-95.4,-515.4,0,0,4158,0,146,0,
2.3133,33.9,-88.5,-123.3,-145.5,30.0,-98.7,-513.0,0,0,4164,0,147,0,
2.3167,24.3,-93.0,-124.5,-150.3,24.3,-105.3,-519.0,0,0,4170,0,148,0,
2.3200,24.6,-97.2,-123.9,-146.7,30.0,-101.7,-522.3,0,0,4176,0,149,0,
2.3233,18.6,-105.9,-131.4,-151.5,26.4,-108.3,-532.8,0,0,4182,0,150,0,
2.3267,28.2,-91.5,-128.1,-153.9,27.9,-100.5,-515.4,0,0,4188,0,151,0,
2.3300,29.1,-84.9,-125.7,-147.6,31.8,-91.8,-507.6,0,0,4194,0,152,0,
2.3333,24.3,-82.2,-126.3,-149.4,29.7,-94.2,-510.0,0,0,4200,0,153,0,
2.3367,36.6,-82.5,-123.0,-143.1,30.9,-91.2,-517.5,0,0,4206,0,154,0,
2.3400,29.7,-72.9,-121.8,-142.2,31.8,-92.4,-519.9,0,0,4212,0,155,0,
2.3433,30.0,-83.4,-125.1,-143.4,30.6,-93.9,-521.1,0,0,4218,0,156,0,
2.3467,24.3,-83.7,-121.2,-146.1,28.8,-94.5,-513.0,0,0,4224,0,157,0,
2.3500,23.4,-85.8,-128.1,-147.3,26.1,-92.7,-511.5,0,0,4230,0,158,0,
2.3533,21.3,-84.6,-133.5,-153.6,26.7,-96.6,-520.8,0,0,4236,0,159,0,
2.3567,25.5,-81.3,-128.4,-150.3,27.0,-96.0,-511.5,0,0,4242,0,160,0,
2.3600,33.0,-70.8,-127.5,-148.8,27.3,-90.9,-509.4,0,0,4248,0,161,0,
2.3633,30.6,-78.9,-127.8,-148.8,27.3,-94.8,-515.1,0,0,4254,0,162,0,
2.3667,31.8,-82.8,-132.0,-153.6,26.1,-96.0,-522.6,0,0,4260,0,163,0,
2.3700,29.1,-77.1,-123.3,-147.6,27.9,-92.4,-512.7,0,0,4266,0,164,0,
2.3733,31.2,-73.2,-125.4,-148.2,29.4,-90.9,-509.7,0,0,4272,0,165,0,
2.3767,35.7,-69.9,-124.8,-151.8,26.4,-95.4,-510.9,0,0,4278,0,166,0,
2.3800,27.0,-73.2,-128.4,-145.5,24.9,-97.2,-513.6,0,0,4284,0,167,0,
2.3833,34.2,-66.6,-119.4,-144.9,30.3,-97.2,-519.6,0,0,4290,0,168,0,
2.3867,31.2,-82.5,-121.5,-146.1,30.0,-96.9,-522.6,0,0,4296,0,169,0,
2.3900,34.5,-77.7,-124.8,-145.5,30.0,-93.3,-519.9,0,0,4302,0,170,0,
2.3933,30.0,-79.8,-130.8,-147.3,27.9,-93.3,-523.2,0,0,4308,0,171,0,
2.3967,23.1,-81.9,-132.6,-152.1,22.5,-98.7,-528.0,0,0,4314,0,172,0,
2.4000,29.4,-80.4,-125.7,-147.9,26.7,-97.2,-529.2,0,0,4320,0,173,0,
2.4033,37.8,-76.5,-125.4,-145.5,26.4,-92.4,-521.4,0,0,4326,0,174,0,
2.4067,29.4,-83.1,-138.3,-149.1,22.5,-98.1,-526.2,0,0,4332,0,175,0,
2.4100,30.0,-78.9,-134.4,-145.8,22.5,-100.2,-525.0,0,0,4338,0,176,0,
2.4133,29.4,-81.9,-132.9,-145.8,22.8,-95.4,-525.9,0,0,4344,0,177,0,
2.4167,35.1,-79.8,-127.2,-146.1,22.8,-96.9,-526.2,0,0,4350,0,178,0,
2.4200,27.9,-85.5,-134.1,-151.2,21.0,-101.4,-528.0,0,0,4356,0,179,0,
2.4233,36.3,-81.0,-129.6,-147.9,25.8,-94.8,-521.7,0,0,4362,0,180,0,
2.4267,35.7,-79.2,-128.7,-150.3,22.8,-95.4,-522.3,0,0,4368,0,181,0,
2.4300,30.6,-86.1,-129.0,-152.7,21.6,-93.6,-529.8,0,0,4374,0,182,0,
2.4333,34.8,-79.5,-130.5,-151.2,24.6,-93.6,-531.6,0,0,4380,0,183,0,
2.4367,25.2,-88.5,-132.6,-151.5,23.1,-91.8,-538.2,0,0,4386,0,184,0,
2.4400,33.0,-81.9,-126.6,-150.0,23.1,-92.7,-528.3,0,0,4392,0,185,0,
2.4433,32.7,-88.5,-131.1,-152.4,24.3,-93.9,-533.1,0,0,4398,0,186,0,
2.4467,25.2,-82.5,-119.4,-148.5,22.2,-100.2,-535.2,0,0,4404,0,187,0,
2.4500,33.0,-85.2,-123.0,-151.5,23.1,-98.1,-529.2,0,0,4410,0,188,0,
2.4533,27.0,-83.7,-120.3,-151.2,24.0,-97.5,-522.6,0,0,4416,0,189,0,
2.4567,29.4,-82.5,-125.7,-151.5,25.8,-101.1,-530.7,0,0,4422,0,190,0,
2.4600,23.7,-89.1,-127.8,-153.6,24.6,-98.7,-533.1,0,0,4428,0,191,0,
2.4633,17.7,-86.4,-128.7,-154.8,21.0,-93.0,-530.7,0,0,4434,0,192,0,
2.4667,31.5,-83.1,-126.9,-152.7,17.1,-108.9,-518.4,0,0,4440,0,193,0,
2.4700,23.4,-82.5,-132.0,-154.8,16.8,-98.4,-527.1,0,0,4446,0,194,0,
2.4733,29.7,-88.5,-126.6,-152.1,15.9,-102.9,-518.7,0,0,4452,0,195,0,
2.4767,13.2,-102.3,-138.6,-159.3,21.3,-91.2,-531.0,0,0,4458,0,196,0,
2.4800,28.2,-87.9,-132.3,-154.5,17.7,-105.3,-540.6,0,0,4464,0,197,0,
2.4833,27.6,-92.4,-132.0,-154.8,16.5,-104.1,-536.7,0,0,4470,0,198,0,
2.4867,27.6,-80.7,-130.8,-154.2,17.4,-102.6,-535.5,0,0,4476,0,199,0,
2.4900,38.1,-78.6,-129.3,-150.9,19.8,-98.4,-525.6,0,0,4482,0,200,0,
2.4933,32.1,-87.9,-127.8,-148.5,20.1,-98.1,-535.5,0,0,4488,0,201,0,
2.4967,39.6,-81.9,-128.1,-152.1,23.4,-91.2,-523.5,0,0,4494,0,202,0,
2.5000,38.1,-78.9,-124.2,-150.3,21.9,-93.3,-532.5,0,0,4500,0,203,0,
2.5033,30.3,-86.1,-130.8,-155.4,20.7,-97.5,-532.2,0,0,4506,0,204,0,
2.5067,33.6,-86.7,-132.6,-155.4,21.0,-90.6,-530.7,0,0,4512,0,205,0,
2.5100,40.2,-88.5,-132.3,-153.3,15.6,-103.2,-523.5,0,0,4518,0,206,0,
2.5133,33.3,-85.5,-123.6,-155.1,21.0,-91.8,-526.2,0,0,4524,0,207,0,
2.5167,28.8,-86.1,-127.2,-153.9,18.3,-101.1,-537.3,0,0,4530,0,208,0,
2.5200,36.6,-84.3,-129.6,-155.7,18.6,-95.7,-525.3,0,0,4536,0,209,0,
2.5233,36.0,-86.1,-130.2,-152.4,21.9,-95.1,-523.8,0,0,4542,0,210,0,
2.5267,21.0,-85.2,-131.4,-153.3,21.0,-96.6,-526.8,0,0,4548,0,211,0,
2.5300,36.3,-90.6,-136.5,-160.2,18.6,-94.5,-526.2,0,0,4554,0,212,0,
2.5333,36.9,-88.2,-131.1,-151.8,24.0,-94.2,-522.9,0,0,4560,0,213,0,
2.5367,42.0,-76.2,-129.9,-153.6,23.7,-97.2,-525.6,0,0,4566,0,214,0,
2.5400,40.2,-72.3,-125.1,-150.3,24.6,-91.2,-520.5,0,0,4572,0,215,0,
2.5433,41.7,-88.5,-131.4,-153.9,24.9,-93.6,-528.0,0,0,4578,0,216,0,
2.5467,43.2,-81.3,-123.9,-147.9,26.7,-90.9,-525.6,0,0,4584,0,217,0,
2.5500,48.9,-76.2,-128.7,-145.2,27.3,-92.1,-520.2,0,0,4590,0,218,0,
2.5533,52.2,-73.5,-122.4,-147.3,28.2,-94.2,-526.8,0,0,4596,0,219,0,
2.5567,45.3,-75.9,-128.7,-153.3,22.2,-97.8,-534.6,0,0,4602,0,220,0,
2.5600,33.6,-76.2,-126.9,-147.6,24.0,-93.0,-534.6,0,0,4608,0,221,0,
2.5633,35.1,-88.5,-124.5,-145.2,25.2,-86.4,-534.0,0,0,4614,0,222,0,
2.5667,40.5,-77.7,-120.0,-143.4,29.7,-90.6,-533.7,0,0,4620,0,223,0,
2.5700,44.7,-68.4,-123.0,-143.1,30.9,-87.3,-526.5,0,0,4626,0,224,0,
2.5733,48.3,-64.5,-123.9,-145.5,28.5,-91.2,-530.1,0,0,4632,0,225,0,
2.5767,49.5,-64.8,-121.5,-143.4,26.4,-90.9,-524.4,0,0,4638,0,226,0,
2.5800,45.9,-71.7,-122.7,-146.7,28.2,-93.3,-527.7,0,0,4644,0,227,0,
2.5833,43.5,-77.4,-120.0,-146.1,24.3,-87.0,-534.0,0,0,4650,0,228,0,
2.5867,44.4,-80.7,-124.5,-149.4,24.6,-96.6,-541.2,0,0,4656,0,229,0,
2.5900,36.3,-78.0,-123.6,-147.3,25.5,-94.8,-543.6,0,0,4662,0,230,0,
2.5933,42.6,-78.6,-120.9,-148.2,29.7,-89.1,-532.5,0,0,4668,0,231,0,
2.5967,39.0,-81.0,-129.3,-150.3,25.5,-93.0,-535.2,0,0,4674,0,232,0,
2.6000,46.2,-81.9,-123.9,-150.6,25.2,-88.8,-540.6,0,0,4680,0,233,0,
2.6033,40.5,-76.8,-129.3,-148.8,27.6,-91.5,-542.7,0,0,4686,0,234,0,
2.6067,39.3,-76.2,-129.6,-151.8,25.8,-95.4,-541.8,0,0,4692,0,235,0,
2.6100,45.9,-73.8,-132.3,-150.9,26.1,-94.8,-540.0,0,0,4698,0,236,0,
2.6133,45.9,-74.7,-125.1,-145.5,27.9,-92.1,-533.4,0,0,4704,0,237,0,
2.6167,44.1,-81.9,-127.8,-144.3,28.2,-97.5,-537.6,0,0,4710,0,238,0,
2.6200,38.7,-87.3,-133.8,-149.7,27.0,-92.4,-539.4,0,0,4716,0,239,0,
2.6233,42.3,-78.3,-132.6,-147.3,29.4,-96.0,-537.9,0,0,4722,0,240,0,
2.6267,37.5,-72.9,-130.8,-149.1,25.8,-102.6,-540.9,0,0,4728,0,241,0,
2.6300,41.1,-79.2,-129.0,-147.6,30.6,-96.3,-543.6,0,0,4734,0,242,0,
2.6333,39.3,-86.4,-131.4,-149.4,28.5,-96.6,-539.4,0,0,4740,0,243,0,
2.6367,42.0,-93.3,-129.9,-146.7,29.4,-93.6,-536.4,0,0,4746,0,244,0,
2.6400,39.9,-94.5,-130.2,-146.7,27.9,-94.5,-535.5,0,0,4752,0,245,0,
2.6433,44.4,-93.0,-126.3,-145.2,26.7,-93.3,-535.2,0,0,4758,0,246,0,
2.6467,34.8,-90.9,-123.9,-146.4,25.8,-98.7,-535.2,0,0,4764,0,247,0,
2.6500,36.0,-91.2,-124.5,-144.3,29.1,-96.6,-535.8,0,0,4770,0,248,0,
2.6533,30.3,-91.8,-135.6,-154.2,28.2,-102.9,-539.7,0,0,4776,0,249,0,
2.6567,31.8,-79.5,-128.4,-147.9,28.8,-97.2,-535.5,0,0,4782,0,250,0,
2.6600,40.5,-86.7,-133.2,-152.4,28.5,-95.7,-537.9,0,0,4788,0,251,0,
2.6633,35.4,-77.1,-123.9,-145.2,30.6,-97.2,-535.8,0,0,4794,0,252,0,
2.6667,34.8,-85.8,-127.5,-145.5,29.7,-94.5,-536.7,0,0,4800,0,253,0,
2.6700,31.8,-76.8,-119.7,-140.1,26.1,-100.2,-529.8,0,0,4806,0,254,0,
2.6733,38.1,-74.7,-125.1,-144.9,24.3,-102.0,-523.5,0,0,4812,0,255,0,
2.6767,35.7,-71.7,-118.8,-144.3,23.4,-100.5,-519.6,0,0,4818,0,0,0,
2.6800,30.0,-92.7,-120.3,-146.4,25.8,-103.2,-522.9,0,0,4824,0,1,0,
2.6833,36.0,-77.4,-118.8,-144.9,29.7,-96.3,-515.1,0,0,4830,0,2,0,
2.6867,28.5,-77.7,-124.8,-145.2,31.2,-97.2,-519.9,0,0,4836,0,3,0,
2.6900,36.0,-77.7,-124.2,-145.8,32.7,-94.5,-515.4,0,0,4842,0,4,0,
2.6933,40.2,-71.4,-121.8,-145.5,26.4,-98.7,-501.3,0,0,4848,0,5,0,
2.6967,31.8,-85.8,-117.0,-140.7,28.5,-101.1,-512.4,0,0,4854,0,6,0,
2.7000,38.7,-82.2,-114.0,-135.6,32.7,-98.1,-514.8,0,0,4860,0,7,0,
2.7033,34.5,-68.7,-115.2,-138.9,32.4,-98.1,-507.6,0,0,4866,0,8,0,
2.7067,39.3,-66.0,-115.5,-142.8,31.5,-95.7,-505.5,0,0,4872,0,9,0,
2.7100,38.7,-61.2,-112.5,-142.5,32.7,-93.9,-502.8,0,0,4878,0,10,0,
2.7133,36.6,-62.4,-112.8,-145.8,32.4,-95.7,-501.0,0,0,4884,0,11,0,
2.7167,32.1,-83.7,-111.0,-144.6,34.2,-99.9,-505.8,0,0,4890,0,12,0,
2.7200,36.0,-72.0,-110.4,-144.9,35.1,-102.6,-502.2,0,0,4896,0,13,0,
2.7233,36.9,-64.5,-108.9,-143.4,35.1,-93.6,-501.9,0,0,4902,0,14,0,
2.7267,31.2,-69.3,-111.6,-142.2,36.3,-92.1,-496.8,0,0,4908,0,15,0,
2.7300,32.4,-81.3,-112.8,-141.3,37.2,-92.1,-502.5,0,0,4914,0,16,0,
2.7333,37.2,-75.0,-109.8,-137.4,38.1,-88.5,-501.0,0,0,4920,0,17,0,
2.7367,36.0,-70.2,-110.1,-139.5,33.9,-92.1,-504.0,0,0,4926,0,18,0,
2.7400,31.5,-69.3,-107.1,-138.6,36.3,-92.7,-507.0,0,0,4932,0,19,0,
2.7433,31.2,-76.8,-104.7,-139.8,37.2,-94.8,-510.9,0,0,4938,0,20,0,
2.7467,28.2,-80.7,-106.2,-140.1,35.4,-91.5,-506.7,0,0,4944,0,21,0,
2.7500,33.6,-65.1,-97.2,-135.0,39.9,-87.0,-500.4,0,0,4950,0,22,0,
2.7533,32.7,-65.7,-104.7,-137.1,36.6,-91.5,-494.7,0,0,4956,0,23,0,
2.7567,39.0,-66.3,-105.9,-137.7,41.4,-84.0,-494.1,0,0,4962,0,24,0,
2.7600,36.6,-60.9,-103.2,-132.3,38.1,-86.1,-494.7,0,0,4968,0,25,0,
2.7633,41.1,-63.9,-103.5,-133.2,39.0,-86.4,-495.9,0,0,4974,0,26,0,
2.7667,29.1,-56.7,-108.6,-137.7,34.8,-90.0,-499.8,0,0,4980,0,27,0,
2.7700,30.6,-65.4,-111.9,-140.7,34.8,-88.5,-497.4,0,0,4986,0,28,0,
2.7733,40.5,-72.9,-107.7,-139.8,34.5,-85.8,-499.2,0,0,4992,0,29,0,
2.7767,38.7,-71.7,-111.0,-137.4,34.2,-88.5,-506.4,0,0,4998,0,30,0,
2.7800,36.3,-67.5,-109.5,-136.5,34.2,-94.2,-509.1,0,0,5004,0,31,0,
2.7833,40.8,-64.8,-109.2,-139.8,34.8,-91.5,-503.4,0,0,5010,0,32,0,
2.7867,42.9,-69.3,-107.4,-140.1,37.5,-89.7,-500.4,0,0,5016,0,33,0,
2.7900,47.4,-74.7,-105.6,-132.3,41.1,-85.8,-498.9,0,0,5022,0,34,0,
2.7933,45.0,-62.4,-102.6,-134.1,42.6,-84.0,-497.4,0,0,5028,0,35,0,
2.7967,49.8,-62.7,-103.8,-136.8,40.2,-85.2,-499.5,0,0,5034,0,36,0,
2.8000,45.9,-58.5,-100.2,-135.0,45.3,-83.7,-499.2,0,0,5040,0,37,0,
2.8033,47.1,-66.3,-100.8,-133.5,45.6,-81.6,-496.8,0,0,5046,0,38,0,
2.8067,43.5,-71.7,-103.2,-132.3,45.6,-88.8,-494.1,0,0,5052,0,39,0,
2.8100,42.6,-63.3,-103.5,-135.9,48.3,-83.1,-495.0,0,0,5058,0,40,0,
2.8133,47.4,-52.8,-105.9,-138.0,48.3,-85.2,-502.2,0,0,5064,0,41,0,
2.8167,51.3,-60.9,-105.9,-137.1,44.4,-77.7,-503.1,0,0,5070,0,42,0,
2.8200,53.1,-57.9,-105.9,-135.6,45.0,-76.8,-493.5,0,0,5076,0,43,0,
2.8233,45.9,-65.1,-110.1,-139.8,45.6,-69.9,-503.4,0,0,5082,0,44,0,
2.8267,46.8,-65.1,-108.6,-139.5,41.4,-92.1,-498.9,0,0,5088,0,45,0,
2.8300,47.4,-70.5,-110.7,-137.4,44.4,-82.2,-509.1,0,0,5094,0,46,0,
2.8333,48.0,-65.1,-101.7,-133.8,42.0,-91.2,-508.8,0,0,5100,0,47,0,
2.8367,48.3,-64.2,-101.4,-135.0,40.5,-86.4,-503.1,0,0,5106,0,48,0,
2.8400,54.6,-61.2,-106.8,-135.9,40.8,-85.5,-499.8,0,0,5112,0,49,0,
2.8433,49.2,-62.1,-103.2,-132.9,43.5,-83.7,-502.2,0,0,5118,0,50,0,
2.8467,57.3,-63.6,-106.2,-134.4,45.9,-81.0,-498.3,0,0,5124,0,51,0,
2.8500,43.2,-64.5,-103.2,-133.2,41.4,-85.2,-502.8,0,0,5130,0,52,0,
2.8533,48.0,-69.3,-107.1,-132.6,41.7,-80.1,-496.8,0,0,5136,0,53,0,
2.8567,36.0,-88.2,-111.9,-134.4,42.6,-84.6,-498.3,0,0,5142,0,54,0,
2.8600,37.8,-77.1,-113.7,-137.7,41.4,-85.5,-502.8,0,0,5148,0,55,0,
2.8633,40.5,-70.8,-106.8,-134.1,42.3,-87.9,-501.3,0,0,5154,0,56,0,
2.8667,51.0,-63.6,-103.2,-129.9,47.1,-71.1,-504.6,0,0,5160,0,57,0,
2.8700,40.8,-69.0,-106.2,-135.0,42.0,-76.2,-505.5,0,0,5166,0,58,0,
2.8733,35.7,-62.1,-103.5,-133.5,42.0,-83.4,-501.3,0,0,5172,0,59,0,
2.8767,42.9,-64.2,-108.3,-137.4,38.7,-87.0,-504.0,0,0,5178,0,60,0,
2.8800,35.4,-56.7,-104.1,-134.4,42.0,-85.8,-505.2,0,0,5184,0,61,0,
2.8833,42.6,-60.3,-99.3,-134.7,39.3,-85.8,-507.3,0,0,5190,0,62,0,
2.8867,28.5,-66.0,-114.0,-134.4,39.0,-86.7,-510.0,0,0,5196,0,63,0,
2.8900,48.0,-71.4,-111.0,-133.5,41.4,-84.0,-504.9,0,0,5202,0,64,0,
2.8933,44.1,-55.8,-103.5,-130.2,43.8,-78.0,-498.9,0,0,5208,0,65,0,
2.8967,45.3,-57.3,-107.1,-129.0,45.0,-75.6,-504.6,0,0,5214,0,66,0,
2.9000,37.8,-69.0,-103.8,-130.2,41.4,-83.7,-503.4,0,0,5220,0,67,0,
2.9033,39.3,-72.0,-108.9,-133.8,42.9,-83.7,-509.4,0,0,5226,0,68,0,
2.9067,38.7,-72.6,-112.5,-132.6,39.3,-90.0,-516.0,0,0,5232,0,69,0,
2.9100,40.5,-65.4,-108.0,-128.1,43.5,-83.1,-513.6,0,0,5238,0,70,0,
2.9133,39.9,-58.2,-99.3,-123.3,45.9,-85.2,-510.0,0,0,5244,0,71,0,
2.9167,39.9,-57.3,-100.2,-123.9,42.9,-90.9,-516.9,0,0,5250,0,72,0,
2.9200,43.5,-58.5,-101.1,-126.9,41.1,-90.6,-492.6,0,0,5256,0,73,0,
2.9233,44.4,-53.7,-103.8,-127.2,45.9,-78.3,-487.8,0,0,5262,0,74,0,
2.9267,36.3,-60.9,-106.5,-131.1,42.3,-80.7,-492.0,0,0,5268,0,75,0,
2.9300,40.2,-67.5,-110.4,-127.2,43.2,-80.4,-497.1,0,0,5274,0,76,0,
2.9333,43.2,-70.2,-108.0,-130.8,46.2,-76.5,-480.3,0,0,5280,0,77,0,
2.9367,45.0,-63.0,-101.4,-124.5,45.3,-78.3,-473.1,0,0,5286,0,78,0,
2.9400,51.3,-71.1,-108.0,-128.7,44.7,-77.1,-469.5,0,0,5292,0,79,0,
2.9433,43.8,-71.1,-110.4,-133.5,46.8,-77.7,-477.3,0,0,5298,0,80,0,
2.9467,35.1,-78.9,-105.6,-128.4,49.5,-75.0,-478.5,0,0,5304,0,81,0,
2.9500,41.1,-56.1,-108.6,-132.0,51.9,-72.3,-473.7,0,0,5310,0,82,0,
2.9533,47.4,-56.1,-117.9,-136.2,50.1,-72.0,-464.1,0,0,5316,0,83,0,
2.9567,35.1,-71.4,-122.4,-135.6,46.8,-71.1,-469.8,0,0,5322,0,84,0,
2.9600,36.3,-78.3,-123.6,-137.1,45.9,-78.0,-474.6,0,0,5328,0,85,0,
2.9633,42.9,-78.6,-117.0,-135.9,47.7,-80.1,-471.3,0,0,5334,0,86,0,
2.9667,31.8,-77.7,-119.4,-139.5,46.2,-72.6,-474.6,0,0,5340,0,87,0,
2.9700,41.7,-72.0,-118.2,-141.6,49.8,-71.1,-457.2,0,0,5346,0,88,0,
2.9733,29.4,-88.5,-119.7,-143.1,50.7,-69.9,-458.7,0,0,5352,0,89,0,
2.9767,39.3,-77.7,-122.1,-143.1,46.2,-65.4,-449.7,0,0,5358,0,90,0,
2.9800,35.1,-74.1,-125.1,-146.4,46.8,-78.0,-456.6,0,0,5364,0,91,0,
2.9833,28.5,-78.0,-128.7,-145.8,44.1,-73.8,-456.9,0,0,5370,0,92,0,
2.9867,27.6,-81.6,-130.8,-148.2,47.1,-71.1,-440.7,0,0,5376,0,93,0,
2.9900,28.2,-90.3,-135.0,-147.9,41.7,-71.7,-440.1,0,0,5382,0,94,0,
2.9933,26.7,-96.3,-135.0,-149.4,45.3,-69.0,-442.8,0,0,5388,0,95,0,
2.9967,14.7,-78.9,-129.9,-145.5,42.6,-70.5,-447.6,0,0,5394,0,96,0,
3.0000,16.5,-89.1,-130.8,-144.0,42.0,-73.2,-448.8,0,0,5400,0,97,0,
3.0033,30.0,-89.7,-136.5,-147.6,42.0,-72.6,-448.8,0,0,5406,0,98,0,
3.0067,22.5,-88.2,-131.1,-148.8,45.0,-70.5,-448.5,0,0,5412,0,99,0,
3.0100,21.3,-90.0,-135.3,-148.5,41.7,-72.0,-448.2,0,0,5418,0,100,0,
3.0133,25.2,-94.5,-135.3,-150.3,43.5,-64.8,-446.4,0,0,5424,0,101,0,
3.0167,19.8,-97.2,-130.8,-145.8,45.6,-65.7,-452.7,0,0,5430,0,102,0,
3.0200,22.8,-93.9,-132.9,-145.2,44.7,-66.0,-448.2,0,0,5436,0,103,0,
3.0233,18.0,-91.8,-129.3,-146.4,45.0,-71.7,-446.1,0,0,5442,0,104,0,
3.0267,16.8,-91.8,-135.0,-148.2,41.7,-75.6,-452.1,0,0,5448,0,105,0,
3.0300,21.3,-93.0,-127.5,-147.9,47.7,-64.8,-449.4,0,0,5454,0,106,0,
3.0333,12.0,-109.2,-129.9,-147.9,42.3,-67.5,-453.0,0,0,5460,0,107,0,
3.0367,20.1,-94.5,-130.5,-150.6,41.1,-67.2,-447.3,0,0,5466,0,108,0,
3.0400,27.3,-83.7,-131.1,-148.8,42.9,-65.7,-443.7,0,0,5472,0,109,0,
3.0433,13.5,-93.0,-129.6,-147.6,42.6,-69.0,-443.7,0,0,5478,0,110,0,
3.0467,15.9,-99.3,-129.3,-147.6,43.2,-72.0,-447.3,0,0,5484,0,111,0,
3.0500,30.9,-90.6,-127.8,-144.6,44.1,-64.5,-446.4,0,0,5490,0,112,0,
3.0533,29.4,-82.2,-122.7,-144.0,45.0,-61.2,-444.3,0,0,5496,0,113,0,
3.0567,29.1,-96.6,-127.2,-145.5,44.4,-62.7,-444.9,0,0,5502,0,114,0,
3.0600,28.8,-79.2,-127.2,-144.9,42.3,-62.1,-448.5,0,0,5508,0,115,0,
3.0633,26.4,-72.0,-129.3,-145.8,43.5,-61.5,-451.8,0,0,5514,0,116,0,
3.0667,34.5,-90.9,-130.2,-147.3,44.7,-62.1,-463.2,0,0,5520,0,117,0,
3.0700,31.2,-89.4,-127.2,-146.7,45.6,-60.0,-452.1,0,0,5526,0,118,0,
3.0733,30.3,-83.7,-126.9,-147.0,45.9,-58.8,-447.9,0,0,5532,0,119,0,
3.0767,26.4,-88.8,-132.3,-147.9,46.2,-61.5,-452.4,0,0,5538,0,120,0,
3.0800,28.8,-83.4,-125.7,-143.4,46.2,-62.1,-452.1,0,0,5544,0,121,0,
3.0833,24.3,-91.2,-123.0,-140.1,45.3,-62.1,-450.3,0,0,5550,0,122,0,
3.0867,32.7,-86.7,-122.7,-139.2,50.1,-59.4,-449.1,0,0,5556,0,123,0,
3.0900,30.0,-84.0,-131.1,-142.8,45.9,-61.5,-451.2,0,0,5562,0,124,0,
3.0933,22.8,-69.3,-123.6,-142.5,49.8,-62.1,-458.7,0,0,5568,0,125,0,
3.0967,26.1,-84.6,-127.8,-146.7,46.8,-65.4,-467.1,0,0,5574,0,126,0,
3.1000,27.6,-95.4,-130.5,-145.5,46.5,-66.3,-464.1,0,0,5580,0,127,0,
3.1033,34.8,-93.3,-129.9,-146.1,45.3,-74.1,-466.2,0,0,5586,0,128,0,
3.1067,12.6,-111.6,-131.4,-145.2,47.1,-68.7,-472.2,0,0,5592,0,129,0,
3.1100,20.4,-102.9,-131.4,-150.0,44.1,-74.4,-477.0,0,0,5598,0,130,0,
3.1133,23.4,-92.1,-127.5,-146.1,43.8,-69.6,-478.5,0,0,5604,0,131,0,
3.1167,21.3,-102.6,-136.2,-149.7,42.0,-68.1,-480.0,0,0,5610,0,132,0,
3.1200,20.7,-104.7,-129.9,-144.0,44.1,-68.7,-474.0,0,0,5616,0,133,0,
3.1233,24.9,-93.3,-132.9,-147.0,45.3,-67.2,-472.8,0,0,5622,0,134,0,
3.1267,17.1,-96.3,-137.4,-152.7,41.1,-73.2,-483.3,0,0,5628,0,135,0,
3.1300,13.5,-101.1,-141.6,-152.4,42.0,-72.6,-493.8,0,0,5634,0,136,0,
3.1333,10.8,-109.2,-143.4,-153.3,38.4,-75.0,-497.4,0,0,5640,0,137,0,
3.1367,22.8,-121.8,-144.3,-153.9,39.0,-79.8,-497.4,0,0,5646,0,138,0,
3.1400,11.4,-122.1,-141.9,-150.6,37.8,-77.1,-496.8,0,0,5652,0,139,0,
3.1433,15.0,-112.5,-146.4,-154.5,36.6,-81.3,-502.2,0,0,5658,0,140,0,
3.1467,12.9,-112.8,-143.4,-156.0,35.4,-76.5,-496.8,0,0,5664,0,141,0,
3.1500,17.7,-114.0,-148.2,-156.9,36.6,-78.6,-500.1,0,0,5670,0,142,0,
3.1533,9.0,-120.3,-146.7,-157.5,34.8,-81.0,-498.6,0,0,5676,0,143,0,
3.1567,7.2,-111.9,-138.9,-155.1,39.9,-75.0,-489.0,0,0,5682,0,144,0,
3.1600,15.0,-111.0,-147.0,-160.8,37.8,-73.8,-481.2,0,0,5688,0,145,0,
3.1633,15.3,-108.0,-148.5,-163.2,36.9,-81.9,-497.7,0,0,5694,0,146,0,
3.1667,13.2,-120.0,-147.6,-160.5,39.9,-78.9,-492.3,0,0,5700,0,147,0,
3.1700,9.3,-127.5,-152.1,-162.6,40.2,-79.5,-502.2,0,0,5706,0,148,0,
3.1733,9.0,-119.7,-151.5,-157.8,40.2,-78.6,-501.0,0,0,5712,0,149,0,
3.1767,12.9,-128.4,-153.6,-163.8,36.3,-84.3,-510.6,0,0,5718,0,150,0,
3.1800,10.5,-134.7,-150.6,-160.2,38.4,-80.4,-506.1,0,0,5724,0,151,0,
3.1833,15.0,-123.0,-149.1,-162.9,39.9,-79.8,-496.8,0,0,5730,0,152,0,
3.1867,5.1,-131.1,-156.0,-166.5,32.4,-82.5,-501.3,0,0,5736,0,153,0,
3.1900,5.4,-126.0,-154.8,-165.0,32.7,-89.4,-500.7,0,0,5742,0,154,0,
3.1933,15.0,-127.5,-153.9,-163.5,36.3,-75.6,-498.6,0,0,5748,0,155,0,
3.1967,10.5,-129.6,-157.8,-165.6,36.0,-82.8,-513.0,0,0,5754,0,156,0,
3.2000,10.8,-125.1,-156.0,-168.0,31.5,-79.2,-507.3,0,0,5760,0,157,0,
3.2033,10.5,-123.3,-153.3,-167.4,29.7,-82.2,-505.8,0,0,5766,0,158,0,
3.2067,4.8,-140.7,-160.5,-169.2,24.3,-88.8,-507.3,0,0,5772,0,159,0,
3.2100,7.2,-137.4,-161.1,-164.7,29.4,-87.3,-502.2,0,0,5778,0,160,0,
3.2133,6.3,-143.7,-162.6,-165.0,30.0,-85.2,-506.4,0,0,5784,0,161,0,
3.2167,7.8,-142.8,-165.9,-171.3,26.4,-88.2,-515.1,0,0,5790,0,162,0,
3.2200,10.8,-132.0,-159.3,-171.0,29.4,-85.2,-508.2,0,0,5796,0,163,0,
3.2233,17.4,-123.0,-156.0,-168.9,26.7,-85.8,-502.5,0,0,5802,0,164,0,
3.2267,4.8,-124.2,-160.5,-171.0,25.2,-96.6,-511.5,0,0,5808,0,165,0,
3.2300,6.9,-122.1,-157.5,-169.8,23.4,-98.4,-509.7,0,0,5814,0,166,0,
3.2333,0.3,-130.5,-162.9,-172.8,26.7,-97.2,-511.8,0,0,5820,0,167,0,
3.2367,9.0,-127.2,-161.4,-170.7,23.7,-96.0,-517.8,0,0,5826,0,168,0,
3.2400,11.1,-121.5,-158.4,-164.7,29.4,-89.7,-508.8,0,0,5832,0,169,0,
3.2433,7.8,-108.3,-153.6,-164.7,32.7,-85.2,-512.4,0,0,5838,0,170,0,
3.2467,2.4,-118.5,-157.8,-168.0,30.0,-87.9,-525.0,0,0,5844,0,171,0,
3.2500,1.2,-124.2,-156.6,-167.7,30.0,-87.9,-514.5,0,0,5850,0,172,0,
3.2533,9.6,-121.8,-152.1,-165.0,30.9,-94.2,-513.9,0,0,5856,0,173,0,
3.2567,7.2,-113.7,-151.2,-169.2,28.5,-88.8,-513.0,0,0,5862,0,174,0,
3.2600,3.6,-112.5,-155.1,-170.4,26.4,-92.7,-511.5,0,0,5868,0,175,0,
3.2633,8.1,-122.1,-160.8,-171.6,28.2,-91.5,-514.2,0,0,5874,0,176,0,
3.2667,-0.9,-125.4,-161.1,-169.5,30.0,-94.5,-516.6,0,0,5880,0,177,0,
3.2700,5.1,-125.7,-163.2,-169.8,26.7,-88.5,-504.6,0,0,5886,0,178,0,
3.2733,8.4,-110.7,-155.7,-166.5,33.0,-80.7,-505.8,0,0,5892,0,179,0,
3.2767,4.8,-124.2,-159.3,-168.6,28.8,-93.9,-510.9,0,0,5898,0,180,0,
3.2800,7.2,-115.5,-161.7,-167.7,28.8,-89.7,-517.8,0,0,5904,0,181,0,
3.2833,0.9,-114.0,-153.3,-168.0,26.7,-92.4,-517.2,0,0,5910,0,182,0,
3.2867,-0.6,-124.5,-152.4,-165.9,27.6,-88.2,-514.8,0,0,5916,0,183,0,
3.2900,4.5,-117.6,-155.7,-166.8,27.9,-90.0,-510.6,0,0,5922,0,184,0,
3.2933,-1.2,-115.5,-158.1,-169.8,27.6,-90.6,-516.9,0,0,5928,0,185,0,
3.2967,14.7,-103.8,-157.5,-168.6,31.8,-85.8,-520.2,0,0,5934,0,186,0,
3.3000,17.4,-104.7,-150.3,-161.7,33.3,-84.0,-515.1,0,0,5940,0,187,0,
3.3033,8.4,-105.3,-155.7,-164.1,30.9,-77.1,-517.8,0,0,5946,0,188,0,
3.3067,9.0,-120.0,-153.9,-162.3,32.7,-82.5,-501.9,0,0,5952,0,189,0,
3.3100,6.3,-122.1,-151.5,-160.5,28.5,-91.5,-504.3,0,0,5958,0,190,0,
3.3133,8.7,-117.9,-148.8,-156.3,32.4,-89.4,-504.0,0,0,5964,0,191,0,
3.3167,11.7,-113.4,-155.1,-163.5,30.9,-90.3,-500.1,0,0,5970,0,192,0,
3.3200,18.3,-107.4,-147.3,-161.4,29.7,-84.6,-493.5,0,0,5976,0,193,0,
3.3233,17.4,-107.4,-146.1,-161.4,28.5,-82.2,-492.6,0,0,5982,0,194,0,
3.3267,13.2,-113.4,-144.6,-161.1,32.7,-79.5,-492.6,0,0,5988,0,195,0,
3.3300,22.2,-102.9,-146.1,-162.9,30.0,-90.3,-495.3,0,0,5994,0,196,0,
3.3333,10.8,-96.0,-145.8,-162.0,30.0,-92.7,-502.8,0,0,6000,0,197,0,
3.3367,21.9,-95.4,-146.4,-163.5,30.9,-88.8,-492.3,0,0,6006,0,198,0,
3.3400,21.0,-101.4,-145.5,-159.0,34.2,-82.8,-487.5,0,0,6012,0,199,0,
3.3433,18.3,-105.3,-147.0,-157.5,36.6,-83.4,-489.0,0,0,6018,0,200,0,
3.3467,20.7,-107.7,-146.7,-157.8,33.9,-87.6,-485.7,0,0,6024,0,201,0,
3.3500,13.8,-115.8,-144.3,-155.7,33.0,-94.2,-496.5,0,0,6030,0,202,0,
3.3533,15.0,-120.3,-142.8,-153.6,33.6,-93.0,-494.1,0,0,6036,0,203,0,
3.3567,18.0,-115.8,-136.5,-151.8,32.7,-91.2,-489.0,0,0,6042,0,204,0,
3.3600,18.6,-103.2,-138.9,-151.8,36.3,-81.9,-464.7,0,0,6048,0,205,0,
3.3633,29.1,-107.7,-137.4,-153.3,38.4,-81.3,-469.5,0,0,6054,0,206,0,
3.3667,24.0,-99.6,-142.5,-159.6,38.7,-86.4,-471.3,0,0,6060,0,207,0,
3.3700,19.5,-107.1,-138.6,-156.3,38.7,-82.5,-476.7,0,0,6066,0,208,0,
3.3733,22.8,-107.7,-135.0,-156.3,41.4,-79.5,-472.2,0,0,6072,0,209,0,
3.3767,27.6,-102.3,-135.6,-154.2,42.9,-83.1,-474.9,0,0,6078,0,210,0,
3.3800,29.4,-99.9,-134.7,-153.9,52.5,-73.2,-469.5,0,0,6084,0,211,0,
3.3833,28.2,-103.8,-135.6,-155.1,50.7,-63.3,-462.0,0,0,6090,0,212,0,
3.3867,34.8,-101.7,-127.8,-150.6,52.8,-70.8,-459.9,0,0,6096,0,213,0,
3.3900,36.0,-95.7,-123.6,-147.6,55.2,-71.4,-453.3,0,0,6102,0,214,0,
3.3933,30.6,-121.2,-128.7,-150.0,46.8,-83.7,-464.4,0,0,6108,0,215,0,
3.3967,25.2,-117.6,-131.7,-152.4,46.5,-80.7,-456.9,0,0,6114,0,216,0,
3.4000,27.9,-101.4,-131.7,-151.5,45.3,-82.5,-478.5,0,0,6120,0,217,0,
3.4033,23.1,-97.5,-130.8,-149.1,47.7,-78.6,-474.9,0,0,6126,0,218,0,
3.4067,21.3,-93.0,-128.7,-149.1,49.8,-79.8,-466.2,0,0,6132,0,219,0,
3.4100,31.8,-103.2,-128.1,-150.9,51.9,-80.4,-468.9,0,0,6138,0,220,0,
3.4133,23.7,-113.1,-130.2,-147.9,51.6,-76.2,-468.0,0,0,6144,0,221,0,
3.4167,31.8,-98.1,-130.5,-149.7,49.5,-76.5,-460.2,0,0,6150,0,222,0,
3.4200,24.0,-90.6,-131.1,-150.0,50.1,-81.9,-463.2,0,0,6156,0,223,0,
3.4233,32.7,-93.0,-131.4,-149.1,52.5,-75.6,-459.3,0,0,6162,0,224,0,
3.4267,24.6,-100.2,-129.6,-151.2,51.3,-80.1,-458.7,0,0,6168,0,225,0,
3.4300,34.5,-98.7,-131.1,-155.1,52.8,-71.1,-456.0,0,0,6174,0,226,0,
3.4333,28.8,-95.1,-124.8,-150.6,53.7,-66.9,-457.2,0,0,6180,0,227,0,
3.4367,36.6,-102.0,-126.0,-148.8,48.3,-76.5,-470.1,0,0,6186,0,228,0,
3.4400,27.6,-83.1,-118.2,-145.5,51.3,-75.0,-465.0,0,0,6192,0,229,0,
3.4433,34.8,-87.0,-123.0,-143.4,47.1,-82.8,-466.2,0,0,6198,0,230,0,
3.4467,29.4,-87.0,-117.9,-146.1,53.7,-70.2,-466.5,0,0,6204,0,231,0,
3.4500,30.3,-89.7,-124.2,-144.3,52.8,-71.1,-463.5,0,0,6210,0,232,0,
3.4533,30.0,-77.4,-123.0,-144.3,52.8,-76.2,-457.5,0,0,6216,0,233,0,
3.4567,20.4,-93.6,-121.5,-145.8,50.7,-72.0,-458.1,0,0,6222,0,234,0,
3.4600,27.3,-90.9,-120.9,-141.9,51.3,-76.8,-450.0,0,0,6228,0,235,0,
3.4633,28.2,-99.6,-126.6,-143.7,49.8,-81.0,-463.2,0,0,6234,0,236,0,
3.4667,26.1,-96.9,-123.3,-140.4,50.7,-84.6,-470.7,0,0,6240,0,237,0,
3.4700,24.0,-101.4,-127.2,-146.1,49.8,-80.4,-468.6,0,0,6246,0,238,0,
3.4733,23.4,-100.8,-125.1,-144.9,52.2,-72.9,-461.4,0,0,6252,0,239,0,
3.4767,28.2,-99.3,-129.3,-147.3,49.8,-81.0,-458.7,0,0,6258,0,240,0,
3.4800,18.6,-82.8,-130.5,-145.2,48.9,-78.3,-457.2,0,0,6264,0,241,0,
3.4833,29.7,-80.1,-128.7,-146.7,57.0,-70.2,-458.4,0,0,6270,0,242,0,
3.4867,22.8,-91.2,-128.7,-150.0,50.7,-81.0,-457.8,0,0,6276,0,243,0,
3.4900,18.3,-101.7,-135.6,-153.0,47.7,-82.2,-465.0,0,0,6282,0,244,0,
3.4933,16.2,-98.1,-137.1,-154.5,46.8,-80.4,-466.2,0,0,6288,0,245,0,
3.4967,11.4,-96.0,-134.1,-156.0,45.6,-83.4,-467.7,0,0,6294,0,246,0,
3.5000,10.8,-108.0,-135.9,-155.4,45.3,-78.3,-471.3,0,0,6300,0,247,0,
3.5033,9.6,-115.8,-130.8,-151.8,47.7,-82.5,-483.0,0,0,6306,0,248,0,
3.5067,12.0,-104.4,-125.4,-152.4,45.3,-85.8,-482.1,0,0,6312,0,249,0,
3.5100,25.2,-86.4,-122.7,-147.9,48.0,-80.1,-470.7,0,0,6318,0,250,0,
3.5133,20.7,-78.3,-121.5,-147.0,47.4,-80.1,-460.8,0,0,6324,0,251,0,
3.5167,13.8,-94.5,-126.9,-153.0,40.5,-87.3,-486.3,0,0,6330,0,252,0,
3.5200,10.8,-90.9,-129.3,-150.0,40.8,-96.9,-488.7,0,0,6336,0,253,0,
3.5233,18.0,-84.6,-128.1,-147.6,42.9,-84.3,-480.3,0,0,6342,0,254,0,
3.5267,18.3,-79.2,-128.7,-149.7,42.0,-96.3,-491.1,0,0,6348,0,255,0,
3.5300,17.7,-57.6,-116.1,-143.4,41.4,-90.9,-486.9,0,0,6354,0,0,0,
3.5333,31.8,-58.2,-113.7,-141.6,46.2,-90.9,-488.7,0,0,6360,0,1,0,
3.5367,13.2,-66.6,-119.4,-143.1,46.8,-88.2,-481.8,0,0,6366,0,2,0,
3.5400,25.8,-60.3,-114.9,-138.6,49.5,-88.2,-490.5,0,0,6372,0,3,0,
3.5433,30.6,-52.2,-109.8,-138.3,49.2,-90.3,-488.7,0,0,6378,0,4,0,
3.5467,22.5,-56.4,-111.3,-140.7,45.3,-98.4,-492.3,0,0,6384,0,5,0,
3.5500,21.9,-54.0,-109.8,-139.5,43.5,-96.0,-493.5,0,0,6390,0,6,0,
3.5533,9.9,-39.6,-104.1,-137.1,41.1,-101.4,-496.2,0,0,6396,0,7,0,
3.5567,6.0,-34.8,-99.0,-137.4,40.5,-104.1,-498.9,0,0,6402,0,8,0,
3.5600,14.1,-16.2,-99.3,-135.6,42.6,-106.2,-487.8,0,0,6408,0,9,0,
3.5633,-0.6,-23.1,-100.8,-138.6,39.0,-106.8,-495.6,0,0,6414,0,10,0,
3.5667,-1.8,-25.8,-104.1,-138.6,37.2,-109.5,-495.9,0,0,6420,0,11,0,
3.5700,2.7,-4.8,-98.7,-131.4,39.3,-96.3,-483.6,0,0,6426,0,12,0,
3.5733,-1.8,10.2,-88.8,-126.9,43.5,-105.9,-465.9,0,0,6432,0,13,0,
3.5767,-13.8,-4.8,-102.9,-135.9,39.3,-95.4,-479.7,0,0,6438,0,14,0,
3.5800,-5.4,4.8,-92.7,-131.1,41.7,-111.0,-478.2,0,0,6444,0,15,0,
3.5833,-3.6,4.5,-92.4,-132.6,43.2,-105.9,-472.5,0,0,6450,0,16,0,
3.5867,-13.5,-1.5,-86.7,-132.6,40.5,-110.1,-481.8,0,0,6456,0,17,0,
3.5900,3.3,36.3,-81.3,-128.1,45.6,-99.6,-467.4,0,0,6462,0,18,0,
3.5933,-5.4,39.6,-76.2,-126.6,49.8,-93.0,-454.2,0,0,6468,0,19,0,
3.5967,-3.3,23.1,-77.4,-127.2,47.1,-96.9,-467.1,0,0,6474,0,20,0,
3.6000,-6.6,28.8,-77.1,-126.9,44.7,-96.9,-463.8,0,0,6480,0,21,0,
3.6033,-4.8,34.8,-71.4,-125.1,48.6,-89.7,-466.5,0,0,6486,0,22,0,
3.6067,-4.5,30.6,-65.7,-123.9,42.3,-110.1,-465.9,0,0,6492,0,23,0,
3.6100,0.0,28.5,-72.3,-126.9,49.2,-100.2,-472.5,0,0,6498,0,24,0,
3.6133,3.6,38.7,-78.9,-128.7,43.8,-104.1,-454.5,0,0,6504,0,25,0,
3.6167,4.2,26.7,-75.0,-127.2,46.5,-102.3,-467.1,0,0,6510,0,26,0,
3.6200,-8.4,14.4,-79.5,-127.8,46.2,-106.8,-475.5,0,0,6516,0,27,0,
3.6233,-0.9,14.4,-77.4,-126.3,52.5,-92.4,-493.8,0,0,6522,0,28,0,
3.6267,-0.6,18.3,-81.3,-130.2,42.9,-103.2,-477.9,0,0,6528,0,29,0,
3.6300,20.1,24.0,-74.7,-123.6,45.9,-88.2,-472.5,0,0,6534,0,30,0,
3.6333,17.7,25.8,-66.3,-117.9,48.3,-103.8,-465.9,0,0,6540,0,31,0,
3.6367,12.9,27.9,-76.8,-126.0,47.7,-93.3,-475.5,0,0,6546,0,32,0,
3.6400,18.6,6.0,-84.6,-127.8,48.9,-94.5,-487.5,0,0,6552,0,33,0,
3.6433,8.7,-0.3,-83.1,-123.6,41.7,-98.7,-486.0,0,0,6558,0,34,0,
3.6467,9.3,-1.2,-84.0,-122.1,43.8,-100.5,-480.0,0,0,6564,0,35,0,
3.6500,3.3,2.1,-85.8,-126.0,44.7,-99.3,-475.5,0,0,6570,0,36,0,
3.6533,11.1,7.8,-72.9,-122.1,38.4,-110.1,-492.0,0,0,6576,0,37,0,
3.6567,6.0,8.4,-76.8,-117.9,41.4,-105.3,-491.4,0,0,6582,0,38,0,
3.6600,12.6,-11.1,-82.2,-125.1,42.3,-110.7,-513.3,0,0,6588,0,39,0,
3.6633,11.4,-7.5,-90.9,-126.3,44.7,-103.2,-501.9,0,0,6594,0,40,0,
3.6667,15.6,-7.8,-88.5,-132.3,46.2,-114.9,-502.2,0,0,6600,0,41,0,
3.6700,9.0,-15.6,-91.5,-131.7,46.2,-103.2,-507.0,0,0,6606,0,42,0,
3.6733,22.2,-10.8,-82.5,-129.3,46.8,-102.3,-508.8,0,0,6612,0,43,0,
3.6767,21.6,-14.1,-81.9,-128.1,48.6,-95.1,-502.5,0,0,6618,0,44,0,
3.6800,16.2,-18.9,-88.5,-132.0,46.5,-93.0,-497.1,0,0,6624,0,45,0,
3.6833,13.8,-16.2,-92.1,-133.8,48.0,-102.0,-504.0,0,0,6630,0,46,0,
3.6867,6.6,-15.0,-90.0,-131.1,45.0,-108.0,-521.4,0,0,6636,0,47,0,
3.6900,14.4,-8.1,-89.7,-130.2,45.6,-107.4,-516.3,0,0,6642,0,48,0,
3.6933,13.5,-12.0,-82.8,-128.4,47.4,-96.0,-512.7,0,0,6648,0,49,0,
3.6967,21.0,-17.1,-81.6,-128.7,47.4,-96.6,-507.9,0,0,6654,0,50,0,
3.7000,24.9,-25.2,-84.0,-129.6,45.6,-104.4,-520.2,0,0,6660,0,51,0,
3.7033,21.3,-14.1,-87.3,-124.8,48.6,-98.4,-498.9,0,0,6666,0,52,0,
3.7067,20.7,-5.1,-85.2,-126.0,45.9,-103.2,-513.6,0,0,6672,0,53,0,
3.7100,34.8,-9.6,-88.2,-129.3,50.7,-91.5,-519.9,0,0,6678,0,54,0,
3.7133,17.1,-8.4,-89.4,-129.6,46.5,-93.9,-505.8,0,0,6684,0,55,0,
3.7167,26.4,-22.2,-90.6,-128.7,48.9,-101.1,-518.7,0,0,6690,0,56,0,
3.7200,29.1,-20.7,-84.6,-122.4,48.3,-98.1,-510.0,0,0,6696,0,57,0,
3.7233,32.7,-13.8,-85.5,-120.6,48.9,-99.3,-515.7,0,0,6702,0,58,0,
3.7267,24.9,-7.8,-87.3,-126.9,45.6,-100.8,-520.5,0,0,6708,0,59,0,
3.7300,19.8,-21.6,-92.1,-128.4,42.9,-103.2,-530.1,0,0,6714,0,60,0,
3.7333,21.9,-31.8,-93.9,-128.7,43.8,-99.9,-529.8,0,0,6720,0,61,0,
3.7367,27.9,-24.3,-87.9,-121.5,43.8,-105.6,-528.9,0,0,6726,0,62,0,
3.7400,15.0,-36.0,-89.7,-125.1,40.8,-110.4,-532.8,0,0,6732,0,63,0,
3.7433,21.9,-31.5,-90.0,-125.4,44.4,-106.2,-526.2,0,0,6738,0,64,0,
3.7467,26.7,-28.8,-95.7,-124.2,45.6,-106.5,-535.8,0,0,6744,0,65,0,
3.7500,21.0,-26.7,-89.7,-120.9,45.0,-106.2,-531.0,0,0,6750,0,66,0,
3.7533,20.1,-30.6,-90.9,-121.2,47.4,-102.6,-524.7,0,0,6756,0,67,0,
3.7567,18.0,-28.8,-81.9,-120.9,48.0,-105.0,-532.8,0,0,6762,0,68,0,
3.7600,26.1,-22.5,-92.7,-128.1,42.3,-111.3,-539.4,0,0,6768,0,69,0,
3.7633,18.0,-22.2,-95.4,-128.1,44.7,-105.0,-534.6,0,0,6774,0,70,0,
3.7667,20.7,-23.7,-93.6,-123.3,42.0,-106.8,-535.2,0,0,6780,0,71,0,
3.7700,5.7,-35.1,-97.5,-126.3,43.8,-104.1,-539.7,0,0,6786,0,72,0,
3.7733,24.0,-39.6,-91.2,-123.6,45.3,-108.3,-548.1,0,0,6792,0,73,0,
3.7767,18.0,-45.0,-93.0,-121.8,45.6,-109.8,-546.0,0,0,6798,0,74,0,
3.7800,17.7,-25.2,-86.1,-123.0,47.4,-101.7,-527.7,0,0,6804,0,75,0,
3.7833,12.9,-30.3,-86.7,-125.1,45.9,-103.2,-532.2,0,0,6810,0,76,0,
3.7867,26.1,-24.9,-93.6,-125.7,45.9,-103.2,-527.4,0,0,6816,0,77,0,
3.7900,2.4,-45.9,-98.1,-128.7,59.1,-113.1,-542.1,0,0,6822,0,78,0,
3.7933,19.8,-41.4,-90.3,-126.9,56.4,-110.7,-556.5,0,0,6828,0,79,0,
3.7967,30.0,-12.9,-84.0,-120.0,38.1,-92.4,-529.2,0,0,6834,0,80,0,
3.8000,29.4,-25.2,-92.7,-125.1,48.3,-99.3,-532.8,0,0,6840,0,81,0,
3.8033,18.9,-28.2,-86.7,-123.0,47.1,-94.5,-535.2,0,0,6846,0,82,0,
3.8067,17.7,-22.5,-79.5,-123.9,50.4,-107.4,-527.7,0,0,6852,0,83,0,
3.8100,3.6,-36.3,-104.7,-138.3,65.1,-114.0,-533.7,0,0,6858,0,84,0,
3.8133,30.3,-17.7,-82.5,-125.7,44.1,-96.0,-534.0,0,0,6864,0,85,0,
3.8167,28.8,-18.6,-83.7,-126.9,44.7,-88.2,-520.2,0,0,6870,0,86,0,
3.8200,14.1,-20.1,-81.0,-129.0,55.2,-90.6,-531.9,0,0,6876,0,87,0,
3.8233,18.6,-26.4,-84.0,-129.3,53.7,-85.2,-535.2,0,0,6882,0,88,0,
3.8267,33.6,-11.4,-82.8,-123.6,50.4,-100.5,-535.8,0,0,6888,0,89,0,
3.8300,11.1,-34.5,-88.2,-129.3,54.6,-86.4,-529.8,0,0,6894,0,90,0,
3.8333,12.3,-28.8,-85.2,-123.9,50.7,-91.5,-505.5,0,0,6900,0,91,0,
3.8367,21.3,-14.1,-91.8,-127.8,52.2,-80.1,-539.1,0,0,6906,0,92,0,
3.8400,30.3,-7.8,-83.4,-122.4,52.5,-93.0,-517.2,0,0,6912,0,93,0,
3.8433,30.3,-15.3,-86.1,-125.7,52.8,-93.6,-532.2,0,0,6918,0,94,0,
3.8467,32.4,-21.0,-89.7,-129.3,51.0,-98.1,-540.9,0,0,6924,0,95,0,
3.8500,30.0,-12.3,-83.1,-122.7,52.8,-92.4,-531.0,0,0,6930,0,96,0,
3.8533,35.7,-12.6,-82.5,-122.7,48.9,-100.2,-525.6,0,0,6936,0,97,0,
3.8567,27.9,-2.1,-83.1,-125.7,52.2,-93.6,-518.1,0,0,6942,0,98,0,
3.8600,24.9,-6.9,-77.7,-122.7,50.4,-95.7,-517.8,0,0,6948,0,99,0,
3.8633,24.6,-15.9,-88.5,-125.7,49.2,-95.4,-525.9,0,0,6954,0,100,0,
3.8667,42.6,-7.2,-77.7,-124.5,50.7,-93.3,-525.9,0,0,6960,0,101,0,
3.8700,22.5,-26.7,-81.6,-123.6,52.8,-90.6,-495.9,0,0,6966,0,102,0,
3.8733,27.0,-21.9,-81.6,-124.2,48.0,-103.8,-534.3,0,0,6972,0,103,0,
3.8767,17.4,-27.9,-92.1,-133.8,60.9,-99.6,-544.5,0,0,6978,0,104,0,
3.8800,34.2,-14.7,-84.9,-129.3,55.5,-103.8,-534.3,0,0,6984,0,105,0,
3.8833,42.0,-6.0,-69.3,-120.0,42.0,-68.4,-505.8,0,0,6990,0,106,0,
3.8867,36.9,-9.3,-74.7,-121.8,56.4,-84.6,-530.4,0,0,6996,0,107,0,
3.8900,42.0,2.7,-79.2,-120.3,49.5,-76.8,-513.9,0,0,7002,0,108,0,
3.8933,32.7,-3.6,-84.9,-123.9,56.1,-81.0,-510.9,0,0,7008,0,109,0,
3.8967,33.0,-8.4,-82.5,-123.3,49.2,-94.5,-525.3,0,0,7014,0,110,0,
3.9000,33.0,-17.1,-92.7,-123.9,58.2,-63.0,-520.8,0,0,7020,0,111,0,
3.9033,45.9,-7.8,-74.1,-118.2,48.3,-105.9,-525.3,0,0,7026,0,112,0,
3.9067,36.9,-27.0,-88.5,-125.1,52.8,-67.2,-534.3,0,0,7032,0,113,0,
3.9100,34.8,-22.8,-83.4,-124.2,62.1,-119.1,-548.1,0,0,7038,0,114,0,
3.9133,39.3,-6.3,-75.9,-119.4,53.7,-88.2,-513.0,0,0,7044,0,115,0,
3.9167,47.1,3.6,-71.1,-114.3,39.9,-76.2,-514.8,0,0,7050,0,116,0,
3.9200,24.3,-6.0,-75.6,-118.5,57.9,-56.1,-504.9,0,0,7056,0,117,0,
3.9233,50.7,14.7,-68.1,-113.4,43.2,-96.0,-537.6,0,0,7062,0,118,0,
3.9267,35.1,-11.4,-74.4,-118.2,51.0,-83.1,-506.4,0,0,7068,0,119,0,
3.9300,39.0,-20.1,-80.7,-118.8,47.1,-87.3,-535.8,0,0,7074,0,120,0,
3.9333,45.0,-9.6,-74.4,-116.7,51.0,-81.3,-522.6,0,0,7080,0,121,0,
3.9367,32.1,-5.1,-80.7,-121.2,49.8,-78.6,-520.8,0,0,7086,0,122,0,
3.9400,36.9,-16.2,-80.7,-121.2,47.7,-83.4,-540.9,0,0,7092,0,123,0,
3.9433,42.3,-26.1,-83.1,-123.9,45.9,-96.3,-535.5,0,0,7098,0,124,0,
3.9467,25.8,-13.8,-79.8,-120.0,51.9,-86.1,-519.9,0,0,7104,0,125,0,
3.9500,34.5,-6.9,-75.3,-117.3,47.7,-87.9,-521.1,0,0,7110,0,126,0,
3.9533,29.4,-12.0,-78.9,-120.0,48.3,-90.3,-545.1,0,0,7116,0,127,0,
3.9567,36.0,-9.6,-77.1,-122.1,41.7,-102.3,-537.6,0,0,7122,0,128,0,
3.9600,36.3,-20.1,-83.7,-121.8,44.1,-100.2,-532.5,0,0,7128,0,129,0,
3.9633,35.4,-15.3,-80.4,-120.3,45.6,-89.1,-525.9,0,0,7134,0,130,0,
3.9667,29.7,-7.2,-80.4,-120.9,41.7,-117.6,-545.1,0,0,7140,0,131,0,
3.9700,18.3,-12.6,-90.3,-129.3,61.5,-80.7,-513.3,0,0,7146,0,132,0,
3.9733,36.0,-3.9,-76.2,-117.0,31.5,-77.7,-525.0,0,0,7152,0,133,0,
3.9767,30.3,-25.5,-83.7,-124.8,39.9,-94.2,-538.8,0,0,7158,0,134,0,
3.9800,38.4,-34.5,-85.5,-129.9,37.2,-86.7,-537.9,0,0,7164,0,135,0,
3.9833,27.3,-37.5,-84.3,-127.8,29.4,-108.9,-530.7,0,0,7170,0,136,0,
3.9867,29.1,-23.7,-84.6,-129.9,32.7,-105.9,-536.1,0,0,7176,0,137,0,
3.9900,38.7,-13.5,-86.1,-129.6,35.4,-107.1,-534.6,0,0,7182,0,138,0,
3.9933,32.7,-14.4,-89.4,-132.9,33.0,-106.2,-543.6,0,0,7188,0,139,0,
3.9967,23.4,-18.0,-84.9,-134.1,36.3,-103.8,-527.4,0,0,7194,0,140,0,
4.0000,26.1,-22.5,-91.2,-134.4,39.9,-97.2,-542.1,0,0,7200,0,141,0,
4.0033,32.4,-27.9,-94.8,-133.2,32.7,-110.7,-534.6,0,0,7206,0,142,0,
4.0067,23.7,-24.9,-99.3,-140.4,34.2,-99.6,-513.9,0,0,7212,0,143,0,
4.0100,32.1,-11.4,-91.8,-134.7,30.6,-110.1,-534.6,0,0,7218,0,144,0,
4.0133,23.7,-24.3,-99.6,-140.1,32.1,-102.0,-524.4,0,0,7224,0,145,0,
4.0167,26.1,-18.6,-98.4,-143.4,26.4,-118.5,-522.6,0,0,7230,0,146,0,
4.0200,30.3,-15.0,-94.8,-135.0,33.9,-104.7,-517.8,0,0,7236,0,147,0,
4.0233,29.4,-6.3,-87.3,-135.3,34.5,-101.4,-521.1,0,0,7242,0,148,0,
4.0267,16.2,-4.5,-87.6,-133.5,36.6,-101.4,-498.9,0,0,7248,0,149,0,
4.0300,25.2,-0.6,-90.0,-136.5,43.2,-110.7,-498.0,0,0,7254,0,150,0,
4.0333,4.8,4.5,-93.6,-137.1,52.8,-96.9,-495.0,0,0,7260,0,151,0,
4.0367,34.5,28.2,-72.3,-123.3,25.5,-87.6,-483.0,0,0,7266,0,152,0,
4.0400,21.3,36.9,-71.7,-122.4,36.0,-112.2,-473.4,0,0,7272,0,153,0,
4.0433,17.4,43.8,-72.3,-128.7,38.4,-87.6,-455.7,0,0,7278,0,154,0,
4.0467,19.5,43.8,-63.9,-126.3,39.9,-96.9,-463.5,0,0,7284,0,155,0,
4.0500,13.2,51.3,-68.4,-127.2,36.0,-100.2,-471.6,0,0,7290,0,156,0,
4.0533,6.9,65.7,-68.7,-128.7,40.2,-96.0,-449.4,0,0,7296,0,157,0,
4.0567,6.6,63.0,-68.1,-130.5,40.5,-89.4,-418.2,0,0,7302,0,158,0,
4.0600,4.2,61.2,-75.9,-133.5,43.8,-60.0,-380.1,0,0,7308,0,159,0,
4.0633,20.4,65.1,-64.2,-126.9,33.6,-114.9,-462.3,0,0,7314,0,160,0,
4.0667,6.6,72.6,-65.7,-127.8,40.2,-95.4,-414.3,0,0,7320,0,161,0,
4.0700,18.9,79.8,-60.9,-123.9,43.8,-94.5,-420.6,0,0,7326,0,162,0,
4.0733,5.4,76.5,-67.8,-129.3,40.2,-84.9,-413.7,0,0,7332,0,163,0,
4.0767,4.8,78.6,-68.4,-128.7,38.1,-94.5,-411.3,0,0,7338,0,164,0,
4.0800,3.3,82.8,-67.5,-128.7,40.8,-82.8,-400.5,0,0,7344,0,165,0,
4.0833,6.9,94.5,-63.9,-126.3,43.8,-81.0,-391.2,0,0,7350,0,166,0,
4.0867,-10.2,91.8,-63.6,-128.1,41.4,-82.8,-396.0,0,0,7356,0,167,0,
4.0900,3.3,99.3,-64.5,-127.2,48.6,-77.4,-387.3,0,0,7362,0,168,0,
4.0933,-3.0,93.6,-56.1,-121.2,48.0,-78.3,-390.6,0,0,7368,0,169,0,
4.0967,-6.0,99.0,-54.6,-124.2,48.0,-77.1,-387.9,0,0,7374,0,170,0,
4.1000,-15.3,106.8,-63.0,-126.9,44.4,-84.0,-394.8,0,0,7380,0,171,0,
4.1033,-7.8,108.9,-57.0,-122.7,48.9,-76.2,-375.9,0,0,7386,0,172,0,
4.1067,-9.3,86.4,-58.8,-119.7,45.9,-81.6,-385.2,0,0,7392,0,173,0,
4.1100,-3.9,99.0,-54.3,-117.6,50.7,-73.2,-385.2,0,0,7398,0,174,0,
4.1133,-5.1,105.3,-57.0,-119.1,54.6,-72.9,-377.7,0,0,7404,0,175,0,
4.1167,-2.4,110.7,-53.4,-116.1,49.8,-77.1,-382.5,0,0,7410,0,176,0,
4.1200,-1.5,102.6,-51.6,-124.2,51.3,-80.7,-390.3,0,0,7416,0,177,0,
4.1233,-2.7,112.2,-56.4,-117.6,54.0,-74.7,-384.3,0,0,7422,0,178,0,
4.1267,-9.0,109.2,-54.9,-121.8,54.0,-70.2,-384.6,0,0,7428,0,179,0,
4.1300,-9.3,96.6,-53.4,-115.2,50.1,-78.9,-396.9,0,0,7434,0,180,0,
4.1333,4.8,97.8,-53.4,-117.3,51.0,-74.4,-385.5,0,0,7440,0,181,0,
4.1367,1.2,93.6,-45.3,-116.1,51.3,-77.4,-390.0,0,0,7446,0,182,0,
4.1400,5.4,95.1,-50.4,-114.0,54.3,-73.8,-400.2,0,0,7452,0,183,0,
4.1433,2.4,89.1,-49.2,-117.0,52.5,-76.8,-407.7,0,0,7458,0,184,0,
4.1467,0.0,73.8,-52.8,-118.8,48.3,-83.7,-410.7,0,0,7464,0,185,0,
4.1500,2.4,91.2,-47.4,-117.3,48.0,-83.7,-408.9,0,0,7470,0,186,0,
4.1533,11.7,95.1,-48.9,-119.4,51.0,-75.0,-406.2,0,0,7476,0,187,0,
4.1567,12.3,90.3,-48.3,-116.4,51.0,-81.6,-418.8,0,0,7482,0,188,0,
4.1600,6.6,75.9,-57.3,-120.0,51.6,-79.5,-423.9,0,0,7488,0,189,0,
4.1633,14.4,83.1,-50.1,-117.9,49.5,-83.7,-432.9,0,0,7494,0,190,0,
4.1667,6.0,77.1,-48.0,-118.2,48.0,-79.2,-431.1,0,0,7500,0,191,0,
4.1700,11.7,86.7,-49.8,-116.1,48.9,-79.2,-436.2,0,0,7506,0,192,0,
4.1733,19.8,69.3,-49.2,-114.0,52.2,-78.6,-438.3,0,0,7512,0,193,0,
4.1767,23.1,68.7,-51.0,-117.0,52.2,-82.8,-438.9,0,0,7518,0,194,0,
4.1800,21.6,65.4,-52.5,-118.2,48.0,-87.9,-448.2,0,0,7524,0,195,0,
4.1833,28.2,73.8,-47.1,-114.3,48.6,-83.4,-442.2,0,0,7530,0,196,0,
4.1867,25.8,64.8,-47.7,-114.6,48.9,-82.2,-450.3,0,0,7536,0,197,0,
4.1900,26.1,51.0,-56.7,-120.0,45.3,-81.9,-456.9,0,0,7542,0,198,0,
4.1933,24.9,39.6,-62.1,-120.3,45.9,-82.2,-460.8,0,0,7548,0,199,0,
4.1967,21.6,45.0,-59.7,-119.7,48.6,-84.3,-461.7,0,0,7554,0,200,0,
4.2000,29.4,39.6,-59.7,-121.2,54.3,-81.3,-464.1,0,0,7560,0,201,0,
4.2033,35.4,50.1,-56.1,-119.1,52.2,-77.4,-465.0,0,0,7566,0,202,0,
4.2067,35.4,41.7,-57.3,-120.6,51.6,-81.3,-471.3,0,0,7572,0,203,0,
4.2100,39.9,50.4,-56.1,-117.9,50.7,-81.9,-471.9,0,0,7578,0,204,0,
4.2133,31.5,42.9,-59.7,-118.2,52.2,-83.4,-475.8,0,0,7584,0,205,0,
4.2167,36.9,43.2,-59.4,-120.0,52.2,-81.0,-467.7,0,0,7590,0,206,0,
4.2200,33.3,35.1,-56.4,-115.8,49.5,-82.5,-462.9,0,0,7596,0,207,0,
4.2233,38.7,33.9,-59.4,-120.6,53.4,-81.6,-465.0,0,0,7602,0,208,0,
4.2267,40.2,45.9,-53.7,-120.3,54.6,-82.5,-468.3,0,0,7608,0,209,0,
4.2300,45.0,42.9,-56.4,-117.3,54.9,-78.9,-472.5,0,0,7614,0,210,0,
4.2333,49.5,37.2,-53.1,-116.7,57.6,-75.3,-463.8,0,0,7620,0,211,0,
4.2367,45.3,45.6,-48.3,-111.6,56.7,-74.1,-461.7,0,0,7626,0,212,0,
4.2400,43.8,37.8,-48.9,-110.4,59.4,-76.2,-469.5,0,0,7632,0,213,0,
4.2433,36.6,33.0,-56.1,-115.5,55.8,-80.7,-474.6,0,0,7638,0,214,0,
4.2467,38.1,34.2,-51.3,-108.9,56.1,-84.3,-486.0,0,0,7644,0,215,0,
4.2500,42.0,31.8,-51.3,-108.0,60.0,-79.2,-482.1,0,0,7650,0,216,0,
4.2533,40.2,24.9,-50.7,-108.0,57.3,-77.4,-482.1,0,0,7656,0,217,0,
4.2567,45.9,25.2,-57.0,-109.8,55.5,-80.7,-478.8,0,0,7662,0,218,0,
4.2600,39.6,15.6,-62.4,-109.8,53.4,-90.3,-488.4,0,0,7668,0,219,0,
4.2633,38.4,15.3,-65.7,-110.4,54.6,-84.6,-489.3,0,0,7674,0,220,0,
4.2667,31.8,13.5,-68.4,-112.5,52.8,-88.2,-489.9,0,0,7680,0,221,0,
4.2700,31.5,22.8,-63.6,-112.2,53.4,-85.5,-492.9,0,0,7686,0,222,0,
4.2733,33.9,10.2,-62.7,-113.7,49.5,-92.7,-500.7,0,0,7692,0,223,0,
4.2767,35.7,8.7,-60.6,-109.5,51.9,-92.7,-495.9,0,0,7698,0,224,0,
4.2800,28.5,9.6,-69.9,-113.1,50.1,-93.9,-500.4,0,0,7704,0,225,0,
4.2833,30.0,1.2,-74.4,-117.6,48.9,-93.3,-504.9,0,0,7710,0,226,0,
4.2867,37.2,0.0,-70.5,-112.8,54.0,-87.9,-497.7,0,0,7716,0,227,0,
4.2900,41.1,7.5,-64.5,-109.8,53.4,-90.0,-496.2,0,0,7722,0,228,0,
4.2933,41.1,18.9,-63.6,-108.6,53.4,-85.5,-492.0,0,0,7728,0,229,0,
4.2967,37.8,8.4,-70.2,-109.8,51.9,-89.1,-497.4,0,0,7734,0,230,0,
4.3000,43.5,11.4,-69.9,-112.8,54.6,-84.3,-493.8,0,0,7740,0,231,0,
4.3033,38.4,9.6,-71.7,-115.2,52.2,-95.7,-501.3,0,0,7746,0,232,0,
4.3067,36.3,-10.2,-69.6,-113.1,48.9,-95.1,-507.0,0,0,7752,0,233,0,
4.3100,37.2,-0.3,-70.8,-115.2,49.2,-93.6,-498.3,0,0,7758,0,234,0,
4.3133,34.8,17.4,-69.0,-113.4,47.4,-95.1,-501.0,0,0,7764,0,235,0,
4.3167,40.5,15.0,-70.2,-111.6,49.2,-92.7,-499.2,0,0,7770,0,236,0,
4.3200,48.3,15.6,-73.2,-111.6,51.9,-89.7,-497.1,0,0,7776,0,237,0,
4.3233,42.0,-9.0,-71.7,-112.5,48.6,-95.1,-504.6,0,0,7782,0,238,0,
4.3267,39.0,-5.1,-76.8,-117.9,49.8,-91.5,-506.1,0,0,7788,0,239,0,
4.3300,34.2,5.1,-76.8,-116.7,44.7,-97.8,-512.1,0,0,7794,0,240,0,
4.3333,39.0,-4.8,-79.2,-118.8,44.7,-97.5,-506.4,0,0,7800,0,241,0,
4.3367,37.2,-11.4,-76.2,-115.2,42.0,-105.6,-509.4,0,0,7806,0,242,0,
4.3400,38.4,-3.9,-77.1,-119.7,40.8,-102.3,-506.4,0,0,7812,0,243,0,
4.3433,40.8,0.9,-80.7,-122.1,40.8,-105.3,-508.5,0,0,7818,0,244,0,
4.3467,35.1,-4.8,-83.1,-126.9,37.5,-106.5,-514.5,0,0,7824,0,245,0,
4.3500,33.0,-7.8,-78.3,-119.7,40.5,-100.5,-507.9,0,0,7830,0,246,0,
4.3533,27.6,-11.4,-84.6,-120.3,38.7,-103.2,-507.3,0,0,7836,0,247,0,
4.3567,30.3,-10.5,-85.5,-120.9,39.0,-107.7,-512.4,0,0,7842,0,248,0,
4.3600,25.2,-8.4,-82.8,-121.2,37.2,-106.8,-513.0,0,0,7848,0,249,0,
4.3633,22.5,-26.4,-89.7,-126.6,33.6,-111.6,-523.2,0,0,7854,0,250,0,
4.3667,22.5,-22.8,-89.7,-125.1,32.4,-111.6,-523.8,0,0,7860,0,251,0,
4.3700,16.8,-16.8,-95.7,-128.1,31.2,-111.6,-525.9,0,0,7866,0,252,0,
4.3733,20.4,-9.3,-92.7,-126.3,27.6,-111.3,-517.5,0,0,7872,0,253,0,
4.3767,21.6,-8.4,-91.2,-127.2,34.5,-105.9,-510.3,0,0,7878,0,254,0,
4.3800,29.4,-2.4,-89.7,-123.0,35.4,-102.9,-505.8,0,0,7884,0,255,0,
4.3833,19.2,-17.1,-90.0,-126.9,33.9,-107.7,-513.9,0,0,7890,0,0,0,
4.3867,20.4,-18.0,-94.5,-126.3,33.9,-109.8,-525.3,0,0,7896,0,1,0,
4.3900,11.1,-6.6,-89.7,-124.8,34.5,-109.2,-520.5,0,0,7902,0,2,0,
4.3933,16.5,-6.6,-92.7,-126.0,33.9,-111.0,-517.2,0,0,7908,0,3,0,
4.3967,14.4,-7.8,-92.4,-125.7,34.8,-105.0,-521.7,0,0,7914,0,4,0,
4.4000,15.0,-12.0,-91.2,-126.3,35.7,-106.8,-529.5,0,0,7920,0,5,0,
4.4033,18.6,-18.0,-91.5,-123.6,36.3,-105.3,-522.9,0,0,7926,0,6,0,
4.4067,17.7,-27.6,-95.4,-125.7,38.7,-107.1,-520.5,0,0,7932,0,7,0,
4.4100,12.0,-13.8,-90.9,-120.0,35.1,-105.9,-531.3,0,0,7938,0,8,0,
4.4133,18.3,-15.9,-93.6,-126.6,38.4,-105.9,-537.6,0,0,7944,0,9,0,
4.4167,1.5,-30.0,-100.5,-127.5,34.5,-111.6,-546.0,0,0,7950,0,10,0,
4.4200,13.8,-19.2,-102.9,-135.0,36.6,-109.2,-528.6,0,0,7956,0,11,0,
4.4233,12.3,-18.6,-101.1,-134.7,40.5,-111.0,-523.5,0,0,7962,0,12,0,
4.4267,-1.2,-28.2,-105.0,-139.2,52.8,-122.7,-535.8,0,0,7968,0,13,0,
4.4300,18.3,-17.1,-92.7,-126.9,30.6,-95.4,-518.7,0,0,7974,0,14,0,
4.4333,21.9,-20.7,-95.1,-126.9,34.5,-90.6,-505.8,0,0,7980,0,15,0,
4.4367,10.2,-30.6,-96.9,-129.6,37.2,-97.2,-507.9,0,0,7986,0,16,0,
4.4400,16.5,-25.8,-98.4,-129.0,36.3,-99.3,-501.9,0,0,7992,0,17,0,
4.4433,21.0,-31.2,-97.5,-127.5,39.9,-94.8,-502.8,0,0,7998,0,18,0,
4.4467,5.1,-27.0,-104.4,-135.6,52.5,-105.9,-510.9,0,0,8004,0,19,0,
4.4500,-1.2,-31.8,-102.6,-134.4,49.2,-100.5,-505.8,0,0,8010,0,20,0,
4.4533,30.6,-21.9,-102.3,-128.1,32.1,-75.6,-489.3,0,0,8016,0,21,0,
4.4567,12.3,-21.9,-101.1,-129.0,40.8,-93.3,-511.2,0,0,8022,0,22,0,
4.4600,10.5,-22.2,-95.4,-125.1,39.6,-87.3,-501.9,0,0,8028,0,23,0,
4.4633,26.1,-26.4,-105.3,-130.2,42.9,-88.8,-491.7,0,0,8034,0,24,0,
4.4667,10.8,-42.9,-109.5,-132.9,42.9,-88.2,-494.7,0,0,8040,0,25,0,
4.4700,13.5,-34.8,-106.5,-130.8,39.6,-92.7,-505.8,0,0,8046,0,26,0,
4.4733,12.6,-43.2,-107.4,-132.9,39.3,-90.3,-505.2,0,0,8052,0,27,0,
4.4767,13.5,-36.3,-108.3,-136.2,39.3,-97.2,-505.5,0,0,8058,0,28,0,
4.4800,11.1,-42.0,-110.7,-139.5,42.9,-88.5,-501.9,0,0,8064,0,29,0,
4.4833,15.9,-35.4,-107.4,-136.5,41.1,-90.9,-500.7,0,0,8070,0,30,0,
4.4867,6.6,-47.1,-110.4,-138.6,41.1,-88.2,-510.0,0,0,8076,0,31,0,
4.4900,11.7,-38.7,-106.8,-136.5,42.9,-86.7,-499.2,0,0,8082,0,32,0,
4.4933,20.1,-34.8,-112.2,-135.6,44.4,-96.9,-506.7,0,0,8088,0,33,0,
4.4967,6.6,-41.4,-112.5,-138.0,56.1,-112.5,-518.7,0,0,8094,0,34,0,
4.5000,18.3,-35.1,-102.9,-127.2,33.0,-81.6,-491.4,0,0,8100,0,35,0,
4.5033,21.6,-34.5,-106.2,-128.7,36.9,-84.6,-500.4,0,0,8106,0,36,0,
4.5067,18.3,-32.7,-105.3,-130.2,39.3,-84.0,-497.4,0,0,8112,0,37,0,
4.5100,15.0,-34.5,-108.6,-131.1,43.2,-90.6,-507.0,0,0,8118,0,38,0,
4.5133,9.3,-38.1,-110.7,-126.9,36.0,-91.5,-506.4,0,0,8124,0,39,0,
4.5167,21.3,-30.6,-107.7,-126.9,43.8,-81.0,-502.2,0,0,8130,0,40,0,
4.5200,9.9,-38.4,-111.0,-134.1,39.3,-97.8,-516.3,0,0,8136,0,41,0,
4.5233,-8.7,-56.1,-112.8,-135.0,50.7,-103.5,-510.3,0,0,8142,0,42,0,
4.5267,14.7,-33.3,-106.8,-127.5,21.3,-82.8,-513.0,0,0,8148,0,43,0,
4.5300,18.0,-40.8,-104.7,-128.4,36.3,-95.4,-511.5,0,0,8154,0,44,0,
4.5333,15.0,-36.3,-108.0,-128.1,33.9,-94.2,-505.8,0,0,8160,0,45,0,
4.5367,-9.6,-52.5,-113.4,-132.3,40.8,-93.6,-520.5,0,0,8166,0,46,0,
4.5400,4.2,-50.4,-115.2,-134.4,32.7,-104.4,-514.8,0,0,8172,0,47,0,
4.5433,-2.1,-57.3,-115.8,-139.5,27.9,-111.9,-510.6,0,0,8178,0,48,0,
4.5467,13.2,-51.3,-120.9,-141.3,37.5,-112.2,-513.0,0,0,8184,0,49,0,
4.5500,8.7,-54.3,-124.8,-146.7,31.2,-110.7,-517.2,0,0,8190,0,50,0,
4.5533,16.5,-46.5,-118.8,-141.3,8.7,-100.5,-515.4,0,0,8196,0,51,0,
4.5567,-3.6,-58.5,-128.7,-146.4,20.7,-111.0,-519.9,0,0,8202,0,52,0,
4.5600,-3.0,-53.4,-126.9,-146.7,21.6,-105.0,-517.5,0,0,8208,0,53,0,
4.5633,-14.7,-69.6,-137.4,-151.2,19.5,-111.0,-505.8,0,0,8214,0,54,0,
4.5667,-9.6,-68.7,-126.3,-155.1,17.7,-111.6,-552.6,0,0,8220,0,55,0,
4.5700,-8.1,-71.4,-129.0,-155.1,16.2,-118.8,-545.7,0,0,8226,0,56,0,
4.5733,1.2,-72.3,-134.7,-160.2,20.1,-101.1,-531.9,0,0,8232,0,57,0,
4.5767,-18.0,-63.9,-127.8,-153.9,15.6,-129.3,-535.2,0,0,8238,0,58,0,
4.5800,-1.5,-68.1,-133.2,-156.9,20.1,-117.0,-530.7,0,0,8244,0,59,0,
4.5833,-12.0,-49.2,-121.2,-152.7,18.3,-121.2,-538.8,0,0,8250,0,60,0,
4.5867,0.6,-70.5,-122.4,-150.9,21.0,-120.0,-544.2,0,0,8256,0,61,0,
4.5900,-22.8,-61.2,-122.7,-154.2,24.9,-93.9,-511.8,0,0,8262,0,62,0,
4.5933,-17.1,-79.5,-139.8,-158.7,32.7,-138.3,-539.7,0,0,8268,0,63,0,
4.5967,-1.2,-69.0,-130.5,-148.5,15.6,-126.3,-555.0,0,0,8274,0,64,0,
4.6000,-14.4,-50.1,-118.2,-145.8,11.4,-99.3,-513.3,0,0,8280,0,65,0,
4.6033,-10.8,-60.6,-123.9,-148.8,30.6,-134.1,-534.0,0,0,8286,0,66,0,
4.6067,-14.7,-62.4,-126.9,-148.8,26.7,-125.7,-527.7,0,0,8292,0,67,0,
4.6100,6.9,-50.4,-110.4,-139.2,16.5,-90.0,-531.3,0,0,8298,0,68,0,
4.6133,-12.3,-43.2,-114.9,-139.5,33.9,-104.7,-528.9,0,0,8304,0,69,0,
4.6167,17.4,-60.9,-126.3,-141.3,26.4,-100.2,-522.6,0,0,8310,0,70,0,
4.6200,11.4,-63.3,-120.9,-138.3,29.7,-104.4,-513.9,0,0,8316,0,71,0,
4.6233,-3.0,-57.0,-121.5,-140.4,36.6,-84.9,-510.3,0,0,8322,0,72,0,
4.6267,11.7,-47.4,-114.3,-140.1,30.9,-103.5,-499.5,0,0,8328,0,73,0,
4.6300,-11.1,-59.1,-117.9,-139.2,37.5,-83.4,-470.1,0,0,8334,0,74,0,
4.6333,16.5,-30.6,-105.0,-132.6,38.1,-104.7,-538.2,0,0,8340,0,75,0,
4.6367,5.7,-48.9,-115.8,-136.8,35.7,-95.7,-522.9,0,0,8346,0,76,0,
4.6400,0.0,-30.6,-111.6,-140.1,40.8,-84.6,-501.0,0,0,8352,0,77,0,
4.6433,21.9,-37.8,-110.1,-134.4,35.4,-119.7,-523.2,0,0,8358,0,78,0,
4.6467,-19.8,-70.8,-119.1,-142.8,47.4,-116.1,-528.9,0,0,8364,0,79,0,
4.6500,-11.4,-33.6,-99.6,-132.6,29.1,-62.1,-446.1,0,0,8370,0,80,0,
4.6533,21.0,-27.6,-105.3,-130.5,34.5,-101.7,-537.0,0,0,8376,0,81,0,
4.6567,9.0,-62.4,-119.4,-138.9,37.5,-89.7,-535.8,0,0,8382,0,82,0,
4.6600,26.7,-63.0,-132.6,-141.6,33.0,-110.4,-547.5,0,0,8388,0,83,0,
4.6633,11.7,-49.5,-119.1,-141.9,35.4,-97.5,-523.5,0,0,8394,0,84,0,
4.6667,29.4,-45.0,-108.9,-134.1,39.6,-83.1,-517.2,0,0,8400,0,85,0,
4.6700,-2.4,-38.4,-102.3,-140.1,36.6,-76.8,-510.3,0,0,8406,0,86,0,
4.6733,22.8,-56.7,-114.3,-137.1,35.7,-99.6,-531.3,0,0,8412,0,87,0,
4.6767,-9.3,-53.1,-120.9,-142.2,34.2,-97.2,-508.2,0,0,8418,0,88,0,
4.6800,9.6,-31.8,-113.1,-138.0,30.3,-107.4,-521.7,0,0,8424,0,89,0,
4.6833,10.5,-38.7,-118.5,-144.0,42.3,-97.8,-510.6,0,0,8430,0,90,0,
4.6867,6.9,-58.8,-122.4,-146.4,28.2,-110.7,-534.6,0,0,8436,0,91,0,
4.6900,-1.8,-39.9,-104.7,-142.5,13.2,-73.8,-492.6,0,0,8442,0,92,0,
4.6933,-0.3,-59.4,-134.4,-147.0,27.3,-98.4,-515.7,0,0,8448,0,93,0,
4.6967,6.3,-54.3,-119.7,-143.7,18.6,-110.4,-510.0,0,0,8454,0,94,0,
4.7000,1.5,-58.2,-132.0,-149.4,26.1,-99.3,-536.4,0,0,8460,0,95,0,
4.7033,-3.0,-50.1,-110.4,-147.6,20.4,-111.3,-529.5,0,0,8466,0,96,0,
4.7067,4.2,-72.9,-137.1,-153.6,16.8,-121.5,-567.6,0,0,8472,0,97,0,
4.7100,-1.2,-53.4,-136.5,-151.5,14.1,-117.9,-527.7,0,0,8478,0,98,0,
4.7133,0.6,-64.8,-144.9,-158.4,22.8,-100.5,-539.1,0,0,8484,0,99,0,
4.7167,-3.0,-66.0,-132.6,-152.4,14.4,-121.5,-534.3,0,0,8490,0,100,0,
4.7200,-6.3,-52.2,-123.9,-148.5,22.2,-102.0,-522.9,0,0,8496,0,101,0,
4.7233,-15.6,-63.6,-118.5,-147.9,30.0,-124.2,-539.7,0,0,8502,0,102,0,
4.7267,-5.4,-52.8,-143.4,-153.6,28.8,-122.1,-555.9,0,0,8508,0,103,0,
4.7300,-3.0,-39.3,-127.2,-152.4,14.1,-89.1,-499.8,0,0,8514,0,104,0,
4.7333,0.9,-44.4,-125.7,-149.1,23.1,-102.9,-518.4,0,0,8520,0,105,0,
4.7367,3.9,-58.2,-124.8,-152.1,17.4,-99.3,-522.9,0,0,8526,0,106,0,
4.7400,-5.4,-66.9,-126.9,-150.0,27.3,-95.1,-494.7,0,0,8532,0,107,0,
4.7433,17.4,-72.0,-115.8,-144.9,27.3,-120.3,-502.5,0,0,8538,0,108,0,
4.7467,11.7,-54.0,-120.6,-146.1,22.8,-110.1,-514.8,0,0,8544,0,109,0,
4.7500,13.8,-51.3,-126.9,-148.2,32.1,-107.7,-495.3,0,0,8550,0,110,0,
4.7533,9.6,-56.1,-129.3,-147.6,32.7,-103.2,-500.1,0,0,8556,0,111,0,
4.7567,4.5,-54.6,-121.5,-144.9,30.6,-105.6,-480.9,0,0,8562,0,112,0,
4.7600,2.1,-54.3,-125.7,-147.6,37.8,-73.8,-478.8,0,0,8568,0,113,0,
4.7633,17.1,-47.1,-120.0,-141.9,33.9,-99.0,-494.4,0,0,8574,0,114,0,
4.7667,15.6,-49.2,-122.7,-144.6,33.9,-107.4,-497.1,0,0,8580,0,115,0,
4.7700,15.3,-37.2,-107.7,-137.1,34.5,-98.4,-478.5,0,0,8586,0,116,0,
4.7733,-4.2,-60.0,-136.5,-155.4,48.3,-111.9,-494.7,0,0,8592,0,117,0,
4.7767,10.5,-42.6,-114.0,-145.2,31.5,-77.1,-465.6,0,0,8598,0,118,0,
4.7800,18.0,-48.6,-117.3,-143.4,25.2,-94.8,-483.9,0,0,8604,0,119,0,
4.7833,6.9,-52.8,-107.7,-143.1,35.1,-95.4,-467.7,0,0,8610,0,120,0,
4.7867,22.2,-60.9,-116.1,-149.7,33.6,-99.9,-488.4,0,0,8616,0,121,0,
4.7900,8.4,-47.4,-120.3,-148.2,33.3,-98.1,-469.8,0,0,8622,0,122,0,
4.7933,29.1,-46.8,-126.0,-151.5,36.3,-91.2,-462.0,0,0,8628,0,123,0,
4.7967,15.3,-53.1,-127.2,-153.6,33.0,-91.5,-463.2,0,0,8634,0,124,0,
4.8000,22.5,-36.0,-106.5,-140.1,38.1,-88.5,-454.2,0,0,8640,0,125,0,
4.8033,28.5,-40.2,-104.7,-142.2,37.8,-87.0,-462.3,0,0,8646,0,126,0,
4.8067,18.6,-55.5,-117.9,-148.8,38.4,-87.6,-460.5,0,0,8652,0,127,0,
4.8100,27.6,-41.1,-114.0,-144.9,39.0,-88.5,-469.2,0,0,8658,0,128,0,
4.8133,18.0,-53.7,-119.4,-150.6,40.5,-85.2,-469.5,0,0,8664,0,129,0,
4.8167,35.7,-34.5,-100.8,-141.3,38.1,-85.8,-455.7,0,0,8670,0,130,0,
4.8200,22.5,-47.4,-125.1,-151.5,57.6,-95.1,-467.1,0,0,8676,0,131,0,
4.8233,39.3,-21.6,-100.5,-141.9,31.2,-75.9,-438.3,0,0,8682,0,132,0,
4.8267,36.6,-33.6,-109.5,-140.7,39.9,-74.7,-442.8,0,0,8688,0,133,0,
4.8300,31.2,-41.4,-108.9,-140.7,40.5,-84.6,-451.8,0,0,8694,0,134,0,
4.8333,29.4,-41.7,-106.2,-139.2,35.4,-90.9,-451.5,0,0,8700,0,135,0,
4.8367,32.7,-47.7,-108.9,-143.4,39.3,-84.9,-451.8,0,0,8706,0,136,0,
4.8400,20.4,-32.7,-105.0,-142.5,42.9,-78.9,-447.3,0,0,8712,0,137,0,
4.8433,23.4,-39.3,-106.5,-140.7,37.2,-90.0,-455.7,0,0,8718,0,138,0,
4.8467,29.4,-35.7,-106.2,-141.3,39.6,-93.9,-455.7,0,0,8724,0,139,0,
4.8500,33.6,-31.2,-104.7,-140.4,37.2,-86.7,-446.7,0,0,8730,0,140,0,
4.8533,34.2,-37.5,-102.9,-136.8,40.8,-84.3,-452.7,0,0,8736,0,141,0,
4.8567,18.6,-38.1,-100.2,-131.1,40.5,-80.7,-454.8,0,0,8742,0,142,0,
4.8600,40.5,-30.0,-101.7,-135.9,42.0,-80.7,-452.4,0,0,8748,0,143,0,
4.8633,42.3,-28.8,-93.0,-130.8,45.0,-78.3,-445.5,0,0,8754,0,144,0,
4.8667,42.3,-23.4,-92.4,-132.3,48.0,-74.1,-445.8,0,0,8760,0,145,0,
4.8700,42.3,-21.3,-88.8,-129.3,44.1,-78.6,-443.4,0,0,8766,0,146,0,
4.8733,39.6,-32.4,-93.3,-133.2,43.5,-84.3,-456.9,0,0,8772,0,147,0,
4.8767,33.6,-25.8,-104.1,-134.4,48.9,-91.8,-453.6,0,0,8778,0,148,0,
4.8800,13.8,-51.9,-107.4,-135.6,52.2,-97.8,-468.0,0,0,8784,0,149,0,
4.8833,42.6,-27.0,-90.9,-126.9,29.4,-65.4,-440.7,0,0,8790,0,150,0,
4.8867,37.5,-24.9,-97.8,-137.7,42.9,-84.3,-449.7,0,0,8796,0,151,0,
4.8900,41.4,-29.7,-99.9,-133.5,43.2,-77.7,-447.3,0,0,8802,0,152,0,
4.8933,25.8,-49.5,-111.9,-141.0,41.7,-84.6,-456.6,0,0,8808,0,153,0,
4.8967,40.2,-42.3,-106.5,-140.7,43.8,-81.3,-453.9,0,0,8814,0,154,0,
4.9000,24.0,-43.8,-112.2,-141.9,41.1,-86.4,-464.4,0,0,8820,0,155,0,
4.9033,24.9,-35.4,-109.8,-143.7,41.1,-86.4,-471.9,0,0,8826,0,156,0,
4.9067,30.6,-44.4,-101.7,-138.3,39.0,-89.1,-461.1,0,0,8832,0,157,0,
4.9100,25.2,-31.5,-109.5,-142.2,37.8,-84.0,-465.3,0,0,8838,0,158,0,
4.9133,22.5,-15.0,-94.2,-135.6,39.9,-86.7,-448.8,0,0,8844,0,159,0,
4.9167,36.6,-27.0,-104.7,-141.6,41.1,-76.2,-447.9,0,0,8850,0,160,0,
4.9200,51.3,-30.6,-105.9,-137.4,43.2,-83.7,-448.5,0,0,8856,0,161,0,
4.9233,40.5,-28.5,-100.2,-138.9,43.2,-75.6,-447.9,0,0,8862,0,162,0,
4.9267,38.7,-23.7,-107.4,-138.6,57.0,-88.2,-440.1,0,0,8868,0,163,0,
4.9300,27.3,-21.3,-99.3,-138.0,45.0,-84.6,-446.7,0,0,8874,0,164,0,
4.9333,28.2,-14.1,-94.8,-132.6,30.0,-65.4,-434.4,0,0,8880,0,165,0,
4.9367,21.9,-24.6,-95.4,-135.9,43.8,-74.1,-443.1,0,0,8886,0,166,0,
4.9400,59.7,-1.5,-94.2,-131.1,43.8,-66.0,-426.9,0,0,8892,0,167,0,
4.9433,26.4,-26.7,-102.0,-134.7,42.6,-70.2,-433.5,0,0,8898,0,168,0,
4.9467,20.4,19.5,-76.5,-127.2,44.7,-71.7,-436.8,0,0,8904,0,169,0,
4.9500,41.7,-20.1,-104.4,-132.9,43.2,-77.4,-449.1,0,0,8910,0,170,0,
4.9533,51.3,-12.6,-96.9,-127.2,49.2,-75.9,-444.6,0,0,8916,0,171,0,
4.9567,21.0,-15.6,-100.8,-135.6,53.7,-62.7,-437.4,0,0,8922,0,172,0,
4.9600,20.1,-23.1,-95.7,-138.3,61.2,-93.6,-442.8,0,0,8928,0,173,0,
4.9633,41.7,1.5,-87.3,-127.8,33.3,-60.6,-413.1,0,0,8934,0,174,0,
4.9667,64.8,3.9,-87.6,-133.5,49.5,-62.7,-429.9,0,0,8940,0,175,0,
4.9700,63.9,1.5,-93.9,-131.4,44.7,-69.9,-430.8,0,0,8946,0,176,0,
4.9733,73.8,-1.2,-86.4,-126.9,44.1,-77.1,-449.1,0,0,8952,0,177,0,
4.9767,83.1,9.6,-81.0,-124.8,49.2,-64.5,-429.9,0,0,8958,0,178,0,
4.9800,87.9,0.9,-84.0,-125.1,49.2,-79.2,-447.0,0,0,8964,0,179,0,
4.9833,69.3,-6.9,-82.5,-120.0,50.1,-69.6,-435.9,0,0,8970,0,180,0,
4.9867,94.2,-11.1,-88.5,-124.8,46.2,-78.6,-456.3,0,0,8976,0,181,0,
4.9900,83.1,-16.2,-88.5,-123.6,45.6,-69.0,-443.4,0,0,8982,0,182,0,
4.9933,107.4,-12.3,-91.8,-124.5,45.6,-75.9,-458.4,0,0,8988,0,183,0,
4.9967,117.3,-14.7,-84.9,-120.6,46.2,-66.9,-448.8,0,0,8994,0,184,0,
5.0000,93.3,-27.6,-86.1,-126.9,42.3,-89.4,-468.6,0,0,9000,0,185,0,
5.0033,98.7,-20.1,-86.4,-124.2,45.6,-78.9,-461.1,0,0,9006,0,186,0,
5.0067,99.9,-38.4,-97.5,-122.7,46.2,-88.5,-472.5,0,0,9012,0,187,0,
5.0100,121.2,-24.3,-93.6,-120.3,48.6,-72.9,-472.2,0,0,9018,0,188,0,
5.0133,123.3,-35.7,-92.4,-124.2,47.4,-68.1,-464.7,0,0,9024,0,189,0,
5.0167,115.2,-39.0,-95.7,-123.9,43.8,-73.2,-480.6,0,0,9030,0,190,0,
5.0200,102.3,-40.2,-93.9,-124.5,45.3,-77.1,-479.1,0,0,9036,0,191,0,
5.0233,98.7,-36.9,-90.6,-124.5,43.2,-79.8,-477.6,0,0,9042,0,192,0,
5.0267,111.6,-38.4,-84.9,-125.4,44.1,-79.5,-484.5,0,0,9048,0,193,0,
5.0300,98.4,-30.9,-79.5,-128.1,47.7,-71.1,-454.5,0,0,9054,0,194,0,
5.0333,104.1,-44.7,-97.5,-131.1,47.4,-76.5,-472.8,0,0,9060,0,195,0,
5.0367,84.6,-32.1,-79.5,-125.4,41.4,-80.7,-482.1,0,0,9066,0,196,0,
5.0400,111.6,-54.6,-100.8,-127.2,42.3,-85.8,-495.0,0,0,9072,0,197,0,
5.0433,80.4,-39.6,-99.9,-128.7,45.9,-69.3,-471.0,0,0,9078,0,198,0,
5.0467,98.7,-58.8,-99.3,-129.0,48.3,-78.0,-495.6,0,0,9084,0,199,0,
5.0500,90.0,-42.3,-96.9,-131.1,39.6,-93.3,-496.5,0,0,9090,0,200,0,
5.0533,98.4,-53.4,-95.7,-133.2,39.6,-76.2,-492.0,0,0,9096,0,201,0,
5.0567,94.2,-69.9,-109.5,-138.6,51.0,-96.9,-502.5,0,0,9102,0,202,0,
5.0600,105.3,-54.3,-104.1,-137.1,48.6,-85.2,-498.9,0,0,9108,0,203,0,
5.0633,101.1,-46.8,-92.4,-127.2,25.2,-78.0,-487.2,0,0,9114,0,204,0,
5.0667,67.2,-61.2,-106.5,-133.2,39.0,-92.1,-494.1,0,0,9120,0,205,0,
5.0700,96.0,-39.9,-96.3,-132.0,41.4,-82.5,-482.1,0,0,9126,0,206,0,
5.0733,90.6,-45.6,-93.6,-126.3,40.8,-85.2,-491.7,0,0,9132,0,207,0,
5.0767,79.2,-72.9,-108.6,-139.8,37.5,-94.8,-509.7,0,0,9138,0,208,0,
5.0800,80.7,-71.1,-112.2,-138.9,34.2,-90.3,-504.0,0,0,9144,0,209,0,
5.0833,93.3,-60.9,-106.5,-135.0,34.8,-88.8,-502.2,0,0,9150,0,210,0,
5.0867,75.3,-64.5,-110.4,-133.8,31.2,-91.2,-507.6,0,0,9156,0,211,0,
5.0900,78.9,-70.8,-114.6,-137.7,31.8,-105.0,-521.1,0,0,9162,0,212,0,
5.0933,73.5,-59.7,-107.1,-134.1,28.8,-101.7,-510.3,0,0,9168,0,213,0,
5.0967,82.8,-57.6,-102.9,-132.0,30.0,-93.6,-496.5,0,0,9174,0,214,0,
5.1000,84.3,-58.2,-110.7,-132.6,27.9,-95.4,-501.0,0,0,9180,0,215,0,
5.1033,79.5,-70.8,-118.8,-140.1,19.5,-109.8,-529.2,0,0,9186,0,216,0,
5.1067,69.9,-88.8,-124.2,-143.7,14.4,-116.1,-538.2,0,0,9192,0,217,0,
5.1100,54.9,-99.3,-130.2,-146.4,10.8,-127.8,-557.1,0,0,9198,0,218,0,
5.1133,58.8,-78.9,-131.1,-152.1,9.6,-121.5,-537.9,0,0,9204,0,219,0,
5.1167,48.9,-88.2,-145.5,-159.9,10.2,-119.4,-539.1,0,0,9210,0,220,0,
5.1200,44.1,-86.7,-134.4,-157.5,6.0,-124.2,-539.1,0,0,9216,0,221,0,
5.1233,59.1,-102.9,-144.0,-161.4,5.4,-126.3,-550.5,0,0,9222,0,222,0,
5.1267,46.2,-106.8,-140.1,-159.0,1.5,-125.7,-547.8,0,0,9228,0,223,0,
5.1300,59.1,-93.9,-141.6,-155.4,10.8,-109.2,-527.7,0,0,9234,0,224,0,
5.1333,55.5,-83.4,-129.6,-152.1,6.3,-120.3,-544.5,0,0,9240,0,225,0,
5.1367,58.2,-99.9,-131.4,-154.2,3.3,-127.2,-553.5,0,0,9246,0,226,0,
5.1400,42.9,-99.3,-139.5,-156.3,9.3,-113.1,-532.5,0,0,9252,0,227,0,
5.1433,48.9,-93.3,-135.0,-155.4,7.2,-117.3,-542.7,0,0,9258,0,228,0,
5.1467,49.5,-103.5,-145.5,-162.3,6.0,-119.7,-549.6,0,0,9264,0,229,0,
5.1500,52.8,-104.1,-148.2,-165.0,2.4,-126.3,-556.2,0,0,9270,0,230,0,
5.1533,51.0,-73.8,-130.5,-157.8,5.7,-115.8,-530.1,0,0,9276,0,231,0,
5.1567,40.8,-97.2,-138.3,-161.4,1.2,-124.5,-549.9,0,0,9282,0,232,0,
5.1600,33.3,-93.6,-143.7,-162.3,8.1,-117.9,-539.1,0,0,9288,0,233,0,
5.1633,35.1,-108.6,-141.6,-158.7,3.9,-129.0,-561.6,0,0,9294,0,234,0,
5.1667,19.2,-113.7,-149.7,-161.7,1.8,-128.1,-558.6,0,0,9300,0,235,0,
5.1700,60.3,-65.4,-123.9,-154.5,8.1,-108.0,-514.8,0,0,9306,0,236,0,
5.1733,40.5,-89.7,-138.0,-158.7,6.3,-117.9,-541.5,0,0,9312,0,237,0,
5.1767,18.3,-114.3,-153.0,-165.3,5.7,-127.8,-559.5,0,0,9318,0,238,0,
5.1800,32.1,-108.6,-149.1,-165.3,9.9,-119.7,-544.5,0,0,9324,0,239,0,
5.1833,47.7,-90.3,-143.7,-156.9,7.2,-124.5,-541.5,0,0,9330,0,240,0,
5.1867,29.4,-76.2,-134.7,-159.6,5.4,-119.7,-536.1,0,0,9336,0,241,0,
5.1900,41.4,-106.5,-155.1,-168.0,9.0,-125.1,-543.3,0,0,9342,0,242,0,
5.1933,36.3,-118.2,-147.3,-163.5,9.6,-115.5,-551.1,0,0,9348,0,243,0,
5.1967,40.8,-115.2,-154.8,-162.6,10.2,-124.2,-567.3,0,0,9354,0,244,0,
5.2000,34.5,-81.0,-138.9,-154.5,13.2,-116.1,-540.6,0,0,9360,0,245,0,
5.2033,39.3,-83.1,-133.8,-153.9,13.2,-117.6,-549.0,0,0,9366,0,246,0,
5.2067,35.1,-92.1,-138.3,-153.3,12.9,-114.6,-552.0,0,0,9372,0,247,0,
5.2100,49.5,-69.3,-142.5,-159.9,12.3,-110.1,-532.8,0,0,9378,0,248,0,
5.2133,49.5,-91.2,-142.8,-156.9,16.8,-111.3,-537.9,0,0,9384,0,249,0,
5.2167,46.2,-87.6,-138.6,-153.9,17.4,-110.7,-532.8,0,0,9390,0,250,0,
5.2200,47.4,-93.6,-141.9,-152.7,13.5,-114.0,-544.2,0,0,9396,0,251,0,
5.2233,35.7,-101.4,-143.1,-155.4,14.7,-122.7,-560.7,0,0,9402,0,252,0,
5.2267,32.7,-117.6,-144.3,-156.3,11.7,-129.6,-577.5,0,0,9408,0,253,0,
5.2300,32.7,-110.1,-137.1,-154.5,14.1,-121.2,-555.9,0,0,9414,0,254,0,
5.2333,49.5,-86.4,-133.8,-153.3,18.3,-106.5,-527.4,0,0,9420,0,255,0,
5.2367,46.5,-90.9,-143.4,-161.1,16.5,-107.4,-526.5,0,0,9426,0,0,0,
5.2400,54.0,-86.4,-137.7,-158.1,18.6,-105.9,-523.8,0,0,9432,0,1,0,
5.2433,39.0,-89.4,-135.6,-158.4,14.1,-111.3,-524.1,0,0,9438,0,2,0,
5.2467,43.2,-99.6,-145.8,-160.2,20.7,-101.1,-520.5,0,0,9444,0,3,0,
5.2500,14.1,-110.1,-150.9,-159.9,19.5,-112.5,-533.4,0,0,9450,0,4,0,
5.2533,60.9,-80.7,-133.8,-158.4,21.0,-94.2,-491.1,0,0,9456,0,5,0,
5.2567,53.4,-95.1,-147.6,-168.3,18.6,-104.4,-504.3,0,0,9462,0,6,0,
5.2600,37.5,-97.2,-142.8,-160.2,21.6,-106.2,-509.1,0,0,9468,0,7,0,
5.2633,36.3,-102.3,-146.7,-162.0,19.5,-102.0,-505.8,0,0,9474,0,8,0,
5.2667,38.4,-103.2,-152.7,-168.9,15.9,-101.4,-512.4,0,0,9480,0,9,0,
5.2700,43.8,-100.2,-149.1,-166.2,10.8,-111.3,-517.2,0,0,9486,0,10,0,
5.2733,42.3,-110.1,-151.8,-169.2,10.5,-111.3,-522.0,0,0,9492,0,11,0,
5.2767,39.0,-79.8,-141.3,-162.6,15.9,-98.7,-495.6,0,0,9498,0,12,0,
5.2800,43.8,-88.5,-136.8,-158.7,18.3,-102.9,-504.6,0,0,9504,0,13,0,
5.2833,53.1,-108.0,-144.6,-162.0,24.9,-97.8,-500.7,0,0,9510,0,14,0,
5.2867,36.3,-97.5,-143.7,-165.6,17.1,-105.0,-510.9,0,0,9516,0,15,0,
5.2900,50.1,-99.9,-142.8,-161.4,16.5,-107.1,-506.1,0,0,9522,0,16,0,
5.2933,30.3,-100.5,-147.0,-164.7,15.9,-109.2,-515.4,0,0,9528,0,17,0,
5.2967,39.6,-88.8,-146.1,-165.6,16.8,-103.8,-504.9,0,0,9534,0,18,0,
5.3000,45.9,-97.8,-139.5,-159.9,14.4,-113.4,-516.9,0,0,9540,0,19,0,
5.3033,33.9,-90.3,-142.5,-161.1,17.1,-105.3,-501.0,0,0,9546,0,20,0,
5.3067,42.9,-93.9,-145.8,-160.2,15.9,-108.3,-505.2,0,0,9552,0,21,0,
5.3100,55.2,-103.8,-150.9,-161.1,21.9,-109.5,-506.1,0,0,9558,0,22,0,
5.3133,40.2,-93.0,-138.3,-156.3,17.7,-112.2,-517.2,0,0,9564,0,23,0,
5.3167,30.6,-104.1,-152.1,-162.0,19.5,-107.7,-506.7,0,0,9570,0,24,0,
5.3200,31.2,-90.0,-150.3,-161.7,21.3,-103.2,-502.8,0,0,9576,0,25,0,
5.3233,22.8,-92.1,-153.6,-171.3,38.4,-116.4,-499.8,0,0,9582,0,26,0,
5.3267,47.4,-88.8,-142.5,-162.9,9.3,-97.8,-500.7,0,0,9588,0,27,0,
5.3300,44.1,-91.5,-136.8,-155.1,6.6,-106.2,-500.4,0,0,9594,0,28,0,
5.3333,28.5,-96.3,-154.5,-162.0,9.0,-108.6,-512.4,0,0,9600,0,29,0,
5.3367,44.1,-92.7,-145.5,-158.7,7.2,-113.1,-511.2,0,0,9606,0,30,0,
5.3400,37.2,-101.1,-152.1,-157.5,10.8,-103.2,-509.4,0,0,9612,0,31,0,
5.3433,36.3,-95.7,-148.8,-159.0,19.8,-99.6,-501.0,0,0,9618,0,32,0,
5.3467,45.9,-83.7,-144.9,-159.3,19.5,-101.4,-499.5,0,0,9624,0,33,0,
5.3500,31.8,-72.3,-135.0,-151.8,16.5,-106.8,-501.0,0,0,9630,0,34,0,
5.3533,50.7,-73.8,-135.3,-156.9,17.4,-96.9,-493.5,0,0,9636,0,35,0,
5.3567,53.7,-99.6,-145.5,-159.6,22.8,-97.8,-503.1,0,0,9642,0,36,0,
5.3600,49.5,-87.3,-140.4,-159.9,17.7,-99.3,-503.7,0,0,9648,0,37,0,
5.3633,58.2,-89.7,-138.3,-154.2,17.4,-100.2,-504.9,0,0,9654,0,38,0,
5.3667,37.8,-82.5,-135.3,-156.9,20.4,-101.7,-493.5,0,0,9660,0,39,0,
5.3700,39.3,-71.4,-132.0,-154.8,23.1,-101.4,-492.6,0,0,9666,0,40,0,
5.3733,37.8,-87.3,-145.2,-159.3,20.4,-107.7,-504.9,0,0,9672,0,41,0,
5.3767,23.1,-109.2,-153.6,-160.5,21.3,-113.1,-523.8,0,0,9678,0,42,0,
5.3800,64.8,-94.8,-148.2,-159.3,24.9,-92.7,-493.5,0,0,9684,0,43,0,
5.3833,45.0,-96.0,-147.0,-161.7,24.0,-90.9,-489.9,0,0,9690,0,44,0,
5.3867,55.5,-82.5,-140.7,-157.5,25.8,-93.3,-488.4,0,0,9696,0,45,0,
5.3900,42.6,-80.7,-142.5,-155.4,25.2,-100.2,-507.0,0,0,9702,0,46,0,
5.3933,56.1,-85.8,-143.7,-157.8,23.7,-101.7,-513.3,0,0,9708,0,47,0,
5.3967,41.1,-90.9,-149.4,-159.3,26.4,-102.6,-514.8,0,0,9714,0,48,0,
5.4000,49.8,-95.4,-143.1,-156.3,24.3,-105.3,-515.4,0,0,9720,0,49,0,
5.4033,43.5,-100.2,-144.0,-155.1,24.0,-102.0,-511.8,0,0,9726,0,50,0,
5.4067,37.2,-90.0,-140.7,-157.5,24.0,-100.8,-499.5,0,0,9732,0,51,0,
5.4100,38.7,-98.7,-145.5,-154.8,24.0,-103.2,-513.6,0,0,9738,0,52,0,
5.4133,40.5,-89.1,-147.6,-153.9,23.7,-102.9,-515.4,0,0,9744,0,53,0,
5.4167,44.7,-99.0,-148.2,-160.2,22.2,-109.8,-520.8,0,0,9750,0,54,0,
5.4200,46.2,-95.4,-143.1,-156.3,25.2,-102.3,-505.5,0,0,9756,0,55,0,
5.4233,46.8,-92.1,-141.0,-150.6,27.9,-101.1,-505.5,0,0,9762,0,56,0,
5.4267,46.2,-90.0,-145.5,-152.4,24.6,-104.1,-510.6,0,0,9768,0,57,0,
5.4300,36.6,-91.8,-140.7,-150.6,24.0,-108.6,-514.2,0,0,9774,0,58,0,
5.4333,33.3,-106.5,-150.9,-154.2,26.4,-102.6,-511.2,0,0,9780,0,59,0,
5.4367,39.0,-98.4,-148.8,-160.8,24.9,-101.1,-505.8,0,0,9786,0,60,0,
5.4400,45.0,-102.0,-144.0,-153.0,23.7,-102.9,-512.4,0,0,9792,0,61,0,
5.4433,29.1,-97.5,-138.3,-148.8,24.0,-106.2,-512.7,0,0,9798,0,62,0,
5.4467,31.8,-102.0,-149.1,-158.4,26.1,-105.9,-516.6,0,0,9804,0,63,0,
5.4500,33.6,-96.3,-142.5,-153.0,24.6,-105.3,-502.5,0,0,9810,0,64,0,
5.4533,40.5,-104.4,-135.6,-148.8,25.8,-110.7,-514.8,0,0,9816,0,65,0,
5.4567,32.4,-113.4,-139.8,-147.9,24.0,-113.1,-528.6,0,0,9822,0,66,0,
5.4600,40.8,-110.7,-144.0,-150.9,27.6,-103.2,-513.0,0,0,9828,0,67,0,
5.4633,40.2,-82.8,-129.0,-144.9,26.7,-99.3,-497.7,0,0,9834,0,68,0,
5.4667,31.2,-92.7,-140.4,-150.3,21.3,-110.1,-509.7,0,0,9840,0,69,0,
5.4700,21.0,-102.3,-146.7,-154.8,23.1,-105.0,-507.3,0,0,9846,0,70,0,
5.4733,47.7,-81.3,-137.4,-153.6,30.3,-93.9,-483.6,0,0,9852,0,71,0,
5.4767,26.1,-98.1,-139.5,-147.9,25.5,-104.1,-505.2,0,0,9858,0,72,0,
5.4800,28.5,-89.7,-139.8,-148.8,26.4,-103.5,-503.7,0,0,9864,0,73,0,
5.4833,21.3,-75.0,-137.1,-146.7,30.6,-97.8,-489.9,0,0,9870,0,74,0,
5.4867,18.6,-69.6,-134.7,-147.0,33.6,-90.6,-473.1,0,0,9876,0,75,0,
5.4900,36.6,-70.8,-134.4,-144.9,37.2,-88.8,-463.5,0,0,9882,0,76,0,
5.4933,21.9,-78.6,-136.8,-146.1,37.8,-88.5,-469.5,0,0,9888,0,77,0,
5.4967,21.6,-74.4,-141.9,-148.5,35.7,-91.2,-469.8,0,0,9894,0,78,0,
5.5000,31.8,-57.3,-127.8,-141.6,36.9,-92.1,-456.0,0,0,9900,0,79,0,
5.5033,24.9,-72.0,-130.2,-146.4,34.2,-100.2,-469.8,0,0,9906,0,80,0,
5.5067,22.8,-77.1,-127.5,-143.7,37.2,-94.8,-456.3,0,0,9912,0,81,0,
5.5100,20.1,-78.0,-131.7,-144.9,37.8,-101.4,-465.3,0,0,9918,0,82,0,
5.5133,18.6,-63.3,-129.3,-144.9,36.6,-99.6,-465.6,0,0,9924,0,83,0,
5.5167,19.5,-71.4,-132.6,-146.1,35.1,-101.1,-467.7,0,0,9930,0,84,0,
5.5200,20.1,-69.3,-139.5,-148.2,39.9,-97.8,-462.6,0,0,9936,0,85,0,
5.5233,26.4,-74.1,-139.5,-150.6,36.0,-99.6,-477.3,0,0,9942,0,86,0,
5.5267,21.0,-69.9,-133.2,-147.6,36.6,-96.6,-463.8,0,0,9948,0,87,0,
5.5300,18.6,-77.7,-137.4,-150.0,30.0,-99.3,-477.3,0,0,9954,0,88,0,
5.5333,18.9,-76.2,-139.8,-156.3,33.0,-102.6,-472.2,0,0,9960,0,89,0,
5.5367,19.2,-92.4,-133.8,-151.5,32.1,-103.5,-468.0,0,0,9966,0,90,0,
5.5400,15.9,-88.5,-138.0,-151.2,33.9,-105.9,-463.2,0,0,9972,0,91,0,
5.5433,21.9,-86.1,-140.1,-155.7,33.0,-102.6,-465.6,0,0,9978,0,92,0,
5.5467,7.5,-94.5,-141.6,-156.9,28.5,-107.7,-474.6,0,0,9984,0,93,0,
5.5500,13.8,-79.5,-138.0,-154.8,35.4,-100.2,-464.7,0,0,9990,0,94,0,
5.5533,17.7,-84.6,-135.6,-153.9,30.6,-101.1,-462.0,0,0,9996,0,95,0,
5.5567,22.2,-95.4,-138.6,-160.2,30.9,-106.5,-468.0,0,0,10002,0,96,0,
5.5600,7.5,-91.5,-136.2,-153.6,33.0,-107.4,-476.7,0,0,10008,0,97,0,
5.5633,16.2,-64.2,-130.8,-156.9,35.7,-101.4,-463.2,0,0,10014,0,98,0,
5.5667,13.2,-62.7,-133.5,-153.9,36.3,-99.9,-455.4,0,0,10020,0,99,0,
5.5700,12.0,-78.0,-130.5,-150.6,32.1,-105.0,-460.5,0,0,10026,0,100,0,
5.5733,19.8,-94.2,-138.3,-151.8,30.6,-109.8,-474.9,0,0,10032,0,101,0,
5.5767,15.6,-83.1,-134.4,-151.5,30.3,-106.5,-464.7,0,0,10038,0,102,0,
5.5800,8.1,-89.4,-136.5,-150.9,30.6,-109.5,-466.5,0,0,10044,0,103,0,
5.5833,13.8,-86.4,-124.8,-146.1,31.5,-105.3,-457.8,0,0,10050,0,104,0,
5.5867,16.2,-117.6,-126.3,-151.5,33.3,-108.3,-456.0,0,0,10056,0,105,0,
5.5900,11.7,-88.5,-133.2,-150.3,29.4,-113.7,-465.0,0,0,10062,0,106,0,
5.5933,10.5,-89.7,-137.7,-157.2,35.1,-106.8,-463.2,0,0,10068,0,107,0,
5.5967,6.6,-66.6,-128.7,-147.3,36.0,-109.8,-470.4,0,0,10074,0,108,0,
5.6000,-8.1,-73.5,-120.9,-144.9,33.0,-110.4,-471.3,0,0,10080,0,109,0,
5.6033,9.6,-74.1,-123.3,-151.2,37.2,-110.1,-462.0,0,0,10086,0,110,0,
5.6067,0.9,-87.3,-136.2,-150.6,37.5,-111.9,-470.1,0,0,10092,0,111,0,
5.6100,4.2,-102.0,-130.5,-142.8,44.1,-104.1,-466.5,0,0,10098,0,112,0,
5.6133,7.2,-110.7,-120.6,-141.6,42.3,-97.5,-463.8,0,0,10104,0,113,0,
5.6167,18.6,-107.7,-131.1,-151.5,42.9,-100.5,-467.4,0,0,10110,0,114,0,
5.6200,12.0,-75.9,-135.6,-152.7,41.4,-101.7,-463.8,0,0,10116,0,115,0,
5.6233,2.4,-102.9,-121.5,-134.4,42.9,-105.0,-468.9,0,0,10122,0,116,0,
5.6267,30.6,-87.0,-125.7,-143.7,48.6,-95.4,-461.1,0,0,10128,0,117,0,
5.6300,17.1,-80.4,-119.1,-141.9,42.0,-100.2,-464.4,0,0,10134,0,118,0,
5.6333,32.4,-74.1,-109.2,-139.2,39.3,-97.8,-454.2,0,0,10140,0,119,0,
5.6367,2.4,-87.6,-123.6,-152.4,48.6,-97.2,-465.9,0,0,10146,0,120,0,
5.6400,36.9,-81.0,-122.4,-142.8,39.3,-90.6,-454.2,0,0,10152,0,121,0,
5.6433,34.5,-70.5,-115.5,-142.2,39.3,-89.4,-454.8,0,0,10158,0,122,0,
5.6467,24.0,-79.5,-129.6,-148.5,40.5,-100.2,-465.3,0,0,10164,0,123,0,
5.6500,30.9,-67.8,-115.5,-143.4,41.7,-95.7,-455.1,0,0,10170,0,124,0,
5.6533,27.0,-77.4,-122.7,-146.1,42.0,-96.3,-465.6,0,0,10176,0,125,0,
5.6567,30.0,-81.6,-127.2,-149.1,41.7,-95.7,-460.8,0,0,10182,0,126,0,
5.6600,18.3,-85.8,-129.9,-154.2,37.2,-99.3,-464.7,0,0,10188,0,127,0,
5.6633,19.2,-104.1,-129.3,-160.2,32.7,-105.0,-471.3,0,0,10194,0,128,0,
5.6667,0.6,-103.5,-146.1,-170.7,21.0,-116.7,-477.9,0,0,10200,0,129,0,
5.6700,1.8,-92.7,-146.4,-166.2,21.3,-115.5,-472.8,0,0,10206,0,130,0,
5.6733,5.4,-99.3,-138.3,-158.4,27.3,-117.6,-472.2,0,0,10212,0,131,0,
5.6767,5.7,-109.8,-145.8,-163.2,19.8,-117.6,-469.5,0,0,10218,0,132,0,
5.6800,-4.5,-104.1,-149.7,-167.7,13.8,-122.1,-476.1,0,0,10224,0,133,0,
5.6833,4.8,-99.3,-153.9,-173.1,17.1,-121.5,-472.2,0,0,10230,0,134,0,
5.6867,1.2,-99.9,-152.1,-171.0,14.7,-120.0,-467.7,0,0,10236,0,135,0,
5.6900,-0.9,-108.6,-152.7,-169.2,16.8,-127.5,-471.0,0,0,10242,0,136,0,
5.6933,0.6,-108.9,-157.2,-168.6,17.7,-124.2,-471.3,0,0,10248,0,137,0,
5.6967,-8.7,-107.7,-155.7,-169.8,18.6,-123.3,-465.9,0,0,10254,0,138,0,
5.7000,6.9,-102.6,-146.1,-164.4,23.4,-110.7,-456.0,0,0,10260,0,139,0,
5.7033,-3.9,-106.2,-150.0,-166.8,19.2,-123.3,-469.8,0,0,10266,0,140,0,
5.7067,-6.0,-107.1,-154.8,-165.3,21.0,-123.3,-466.8,0,0,10272,0,141,0,
5.7100,0.6,-105.6,-150.0,-159.0,25.2,-126.6,-474.9,0,0,10278,0,142,0,
5.7133,-0.3,-104.7,-148.5,-160.5,23.4,-121.2,-474.9,0,0,10284,0,143,0,
5.7167,-4.5,-99.9,-152.7,-160.2,23.1,-116.1,-472.2,0,0,10290,0,144,0,
5.7200,10.8,-97.8,-148.2,-160.5,27.3,-114.9,-465.6,0,0,10296,0,145,0,
5.7233,7.2,-101.1,-145.8,-160.2,27.9,-109.5,-465.3,0,0,10302,0,146,0,
5.7267,19.5,-94.2,-142.2,-157.2,33.9,-101.4,-456.9,0,0,10308,0,147,0,
5.7300,10.8,-95.1,-142.2,-152.4,39.9,-102.9,-461.4,0,0,10314,0,148,0,
5.7333,20.4,-82.8,-138.6,-148.8,41.4,-93.6,-447.6,0,0,10320,0,149,0,
5.7367,19.8,-84.0,-136.8,-150.9,39.6,-100.2,-446.1,0,0,10326,0,150,0,
5.7400,24.6,-79.8,-134.4,-151.5,36.9,-108.9,-459.3,0,0,10332,0,151,0,
5.7433,16.2,-81.0,-133.8,-150.3,40.2,-106.8,-459.6,0,0,10338,0,152,0,
5.7467,19.5,-90.3,-131.4,-146.7,41.1,-106.8,-450.9,0,0,10344,0,153,0,
5.7500,21.3,-71.4,-132.6,-149.7,43.2,-104.1,-454.5,0,0,10350,0,154,0,
5.7533,27.0,-74.1,-132.9,-148.8,42.3,-100.5,-452.1,0,0,10356,0,155,0,
5.7567,30.3,-86.1,-137.1,-148.5,41.4,-98.4,-450.6,0,0,10362,0,156,0,
5.7600,36.3,-74.1,-122.4,-144.3,45.6,-97.2,-446.4,0,0,10368,0,157,0,
5.7633,26.1,-73.5,-126.6,-144.9,40.8,-103.8,-441.0,0,0,10374,0,158,0,
5.7667,29.4,-77.1,-131.4,-150.9,40.2,-106.5,-444.3,0,0,10380,0,159,0,
5.7700,23.4,-91.2,-132.3,-150.6,44.4,-98.4,-449.1,0,0,10386,0,160,0,
5.7733,27.0,-87.3,-135.0,-153.9,42.6,-104.7,-454.2,0,0,10392,0,161,0,
